####### Preamble ##########################
#	byt_nr=1
#	bit_nr=8
#	encdg=BIN
#	bn_fmt=RI
#	byt_or=MSB
#	nr_pt=10000
#	wfid="Ch1, DC coupling, 5.0E0 V/div, 1.0E-1 s/div, 10000 points, Sample mode"
#	pt_fmt=Y
#	xincr=1.0E-4
#	pt_off=0
#	xzero=-1.0E-1
#	xunit="s"
#	ymult=2.0E-1
#	yzero=0.0E0
#	yoff=5.7E1
#	yunit="V"
#######  Cursor ##########################
#VBA;IND;"s";2.4E-2;-2.0E-3;1.3E0;2.6E-2;CURSOR1;-2.0E-1;-1.5E0;4.4E0;-4.0E0;8.4E0;CURSOR1;"V";CURSOR1;CURSOR1X;-3.24E1;-1.04E1;9.6E0;2.16E1;RECT;0.0E0;0.0E0;0.0E0;0.0E0;0.0E0;0.0E0;9.9E37;9.9E37;9.9E37;9.9E37;9.9E37;9.9E37;9.9E37;9.9E37;9.9E37;9.9E37;9.9E37;9.9E37
#######  Data ##########################
#RIB;REF1;CH1;1;10000;1
# Delete the above lines to open in excel ######

Time [s],volts [V]
0.0,64.0
0.0001,67.6
0.0002,66.8
0.00030000000000000003,66.6
0.0004,66.6
0.0005,66.6
0.0006000000000000001,66.6
0.0007,64.2
0.0008,64.0
0.0009000000000000001,63.8
0.001,64.0
0.0011,64.2
0.0012000000000000001,64.0
0.0013000000000000002,64.2
0.0014,63.8
0.0015,64.0
0.0016,63.8
0.0017000000000000001,63.8
0.0018000000000000002,64.2
0.0019,64.0
0.002,63.8
0.0021000000000000003,64.2
0.0022,63.8
0.0023,64.0
0.0024000000000000002,64.2
0.0025,64.2
0.0026000000000000003,64.2
0.0027,64.0
0.0028,64.0
0.0029000000000000002,64.0
0.003,64.2
0.0031000000000000003,63.8
0.0032,64.2
0.0033,63.8
0.0034000000000000002,64.2
0.0035,64.2
0.0036000000000000003,64.0
0.0037,64.2
0.0038,64.0
0.0039000000000000003,64.2
0.004,64.2
0.0041,64.0
0.004200000000000001,64.2
0.0043,64.0
0.0044,64.0
0.0045000000000000005,64.0
0.0046,64.0
0.0047,64.0
0.0048000000000000004,64.0
0.0049,64.0
0.005,64.0
0.0051,64.2
0.005200000000000001,64.2
0.0053,64.2
0.0054,64.2
0.0055000000000000005,64.2
0.0056,64.2
0.0057,64.2
0.0058000000000000005,64.2
0.0059,64.2
0.006,64.0
0.0061,64.0
0.006200000000000001,64.0
0.0063,63.8
0.0064,64.2
0.006500000000000001,64.2
0.0066,64.2
0.0067,64.2
0.0068000000000000005,64.0
0.006900000000000001,63.8
0.007,64.0
0.0071,64.0
0.007200000000000001,63.8
0.0073,64.0
0.0074,64.0
0.007500000000000001,63.8
0.0076,64.0
0.0077,64.2
0.0078000000000000005,64.2
0.0079,64.0
0.008,63.8
0.0081,63.8
0.0082,64.0
0.0083,64.2
0.008400000000000001,64.0
0.0085,64.0
0.0086,64.0
0.008700000000000001,64.0
0.0088,64.2
0.0089,64.2
0.009000000000000001,64.0
0.0091,64.2
0.0092,64.2
0.009300000000000001,64.2
0.0094,64.4
0.0095,64.2
0.009600000000000001,64.0
0.0097,64.2
0.0098,64.2
0.0099,64.2
0.01,64.2
0.010100000000000001,64.2
0.0102,64.2
0.0103,64.0
0.010400000000000001,64.0
0.0105,64.0
0.0106,64.2
0.010700000000000001,64.2
0.0108,64.0
0.0109,64.0
0.011000000000000001,64.2
0.0111,64.2
0.0112,64.2
0.011300000000000001,64.0
0.0114,64.2
0.0115,64.0
0.011600000000000001,64.2
0.0117,64.2
0.0118,64.0
0.0119,64.0
0.012,64.4
0.012100000000000001,64.0
0.0122,64.0
0.0123,64.2
0.012400000000000001,64.2
0.0125,64.2
0.0126,64.0
0.012700000000000001,64.0
0.0128,64.2
0.0129,64.2
0.013000000000000001,64.0
0.0131,64.2
0.0132,64.2
0.013300000000000001,64.2
0.0134,64.2
0.0135,64.2
0.013600000000000001,64.4
0.0137,64.2
0.013800000000000002,64.2
0.013900000000000001,64.2
0.014,64.2
0.014100000000000001,64.2
0.0142,64.0
0.0143,64.2
0.014400000000000001,64.0
0.0145,64.0
0.0146,64.0
0.014700000000000001,64.2
0.0148,64.4
0.0149,64.4
0.015000000000000001,64.2
0.0151,64.2
0.0152,64.4
0.015300000000000001,64.2
0.0154,64.2
0.0155,64.4
0.015600000000000001,64.4
0.015700000000000002,64.4
0.0158,64.2
0.0159,64.0
0.016,64.4
0.0161,64.2
0.0162,64.4
0.016300000000000002,64.2
0.0164,64.4
0.0165,64.4
0.0166,64.4
0.0167,64.2
0.016800000000000002,64.2
0.016900000000000002,64.2
0.017,64.2
0.0171,64.2
0.0172,64.2
0.0173,64.4
0.017400000000000002,64.4
0.0175,64.2
0.0176,64.4
0.0177,64.4
0.0178,64.0
0.0179,64.2
0.018000000000000002,64.0
0.0181,64.2
0.0182,64.4
0.0183,64.2
0.0184,64.2
0.018500000000000003,64.2
0.018600000000000002,64.2
0.0187,64.4
0.0188,64.4
0.0189,64.4
0.019,64.2
0.019100000000000002,64.4
0.019200000000000002,64.4
0.0193,64.2
0.0194,64.4
0.0195,64.2
0.0196,64.4
0.019700000000000002,64.2
0.0198,64.2
0.0199,64.4
0.02,64.4
0.0201,64.4
0.020200000000000003,64.2
0.020300000000000002,64.4
0.0204,64.2
0.0205,64.4
0.0206,64.4
0.0207,64.4
0.020800000000000003,64.2
0.020900000000000002,64.4
0.021,64.4
0.0211,64.4
0.0212,64.2
0.0213,64.2
0.021400000000000002,64.4
0.021500000000000002,64.2
0.0216,64.4
0.0217,64.4
0.0218,64.4
0.0219,64.4
0.022000000000000002,64.4
0.0221,64.2
0.0222,64.4
0.0223,64.6
0.0224,64.4
0.022500000000000003,64.2
0.022600000000000002,64.2
0.0227,64.6
0.0228,64.4
0.0229,64.4
0.023,64.6
0.023100000000000002,64.4
0.023200000000000002,64.4
0.0233,64.4
0.0234,64.4
0.0235,64.4
0.0236,64.4
0.023700000000000002,64.6
0.0238,64.4
0.0239,64.4
0.024,64.2
0.0241,64.2
0.024200000000000003,64.4
0.024300000000000002,64.4
0.0244,64.2
0.0245,64.4
0.0246,64.4
0.0247,64.4
0.024800000000000003,64.6
0.024900000000000002,64.6
0.025,64.6
0.0251,64.4
0.0252,64.6
0.0253,64.6
0.025400000000000002,64.6
0.025500000000000002,64.6
0.0256,64.4
0.0257,64.4
0.0258,64.2
0.025900000000000003,64.4
0.026000000000000002,64.2
0.0261,64.4
0.0262,64.6
0.0263,64.4
0.0264,64.4
0.026500000000000003,64.6
0.026600000000000002,64.4
0.0267,64.4
0.0268,64.4
0.0269,64.6
0.027,64.2
0.027100000000000003,64.4
0.027200000000000002,64.4
0.0273,64.4
0.0274,64.4
0.0275,64.6
0.027600000000000003,64.6
0.027700000000000002,64.4
0.027800000000000002,64.4
0.0279,64.4
0.028,64.6
0.0281,64.6
0.028200000000000003,64.4
0.028300000000000002,64.4
0.0284,64.4
0.0285,64.6
0.0286,64.4
0.0287,64.6
0.028800000000000003,64.4
0.028900000000000002,64.8
0.029,64.4
0.0291,64.4
0.0292,64.6
0.029300000000000003,64.6
0.029400000000000003,64.4
0.029500000000000002,64.6
0.0296,64.8
0.0297,64.4
0.0298,64.6
0.029900000000000003,64.8
0.030000000000000002,64.6
0.030100000000000002,64.6
0.0302,64.6
0.0303,64.6
0.0304,64.6
0.030500000000000003,64.6
0.030600000000000002,64.6
0.0307,64.4
0.0308,64.6
0.0309,64.6
0.031,64.6
0.031100000000000003,64.8
0.031200000000000002,64.8
0.0313,64.6
0.031400000000000004,64.6
0.0315,64.8
0.0316,64.6
0.0317,64.6
0.0318,64.8
0.031900000000000005,64.6
0.032,64.6
0.032100000000000004,64.6
0.0322,64.8
0.0323,64.8
0.0324,64.6
0.0325,64.4
0.032600000000000004,64.8
0.0327,64.6
0.0328,64.6
0.0329,64.8
0.033,64.4
0.033100000000000004,64.8
0.0332,64.8
0.0333,64.8
0.0334,64.6
0.0335,64.8
0.033600000000000005,64.8
0.0337,64.8
0.033800000000000004,64.8
0.0339,64.6
0.034,64.8
0.0341,64.8
0.0342,64.6
0.034300000000000004,64.6
0.0344,64.8
0.0345,64.6
0.0346,64.8
0.0347,64.6
0.034800000000000005,64.8
0.0349,64.8
0.035,64.8
0.0351,64.8
0.0352,64.6
0.035300000000000005,64.8
0.0354,64.8
0.035500000000000004,64.8
0.0356,64.4
0.0357,64.6
0.0358,64.8
0.0359,64.6
0.036000000000000004,64.6
0.0361,64.8
0.0362,64.8
0.0363,64.8
0.0364,64.8
0.036500000000000005,64.8
0.0366,64.6
0.0367,64.8
0.0368,65.0
0.0369,64.6
0.037000000000000005,64.6
0.0371,64.8
0.037200000000000004,64.8
0.0373,64.6
0.0374,64.8
0.0375,65.0
0.0376,64.8
0.037700000000000004,64.8
0.0378,64.8
0.0379,64.8
0.038,64.8
0.0381,64.6
0.038200000000000005,64.8
0.0383,65.0
0.038400000000000004,65.0
0.0385,64.8
0.0386,65.0
0.038700000000000005,65.0
0.0388,64.8
0.038900000000000004,64.8
0.039,65.0
0.0391,65.0
0.0392,64.6
0.0393,64.8
0.039400000000000004,65.0
0.0395,64.8
0.0396,65.0
0.0397,65.0
0.0398,65.0
0.039900000000000005,65.0
0.04,64.8
0.040100000000000004,64.8
0.0402,64.8
0.0403,65.0
0.040400000000000005,65.0
0.0405,64.8
0.040600000000000004,64.8
0.0407,65.2
0.0408,64.8
0.0409,65.0
0.041,64.8
0.041100000000000005,65.0
0.0412,64.8
0.0413,64.8
0.0414,65.0
0.0415,64.8
0.041600000000000005,65.0
0.0417,65.2
0.041800000000000004,64.8
0.0419,64.8
0.042,65.0
0.042100000000000005,65.0
0.0422,65.0
0.042300000000000004,65.0
0.0424,64.8
0.0425,65.0
0.0426,65.2
0.0427,65.0
0.042800000000000005,65.0
0.0429,65.0
0.043000000000000003,65.0
0.0431,65.2
0.0432,64.8
0.043300000000000005,65.0
0.0434,65.0
0.043500000000000004,65.0
0.0436,65.2
0.0437,64.8
0.0438,65.2
0.0439,65.0
0.044000000000000004,65.0
0.0441,64.6
0.0442,65.0
0.0443,65.0
0.0444,65.0
0.044500000000000005,65.0
0.0446,65.0
0.044700000000000004,65.2
0.0448,65.0
0.0449,65.2
0.045000000000000005,65.0
0.0451,65.2
0.045200000000000004,65.2
0.0453,65.2
0.0454,65.2
0.0455,65.2
0.0456,65.2
0.045700000000000005,65.2
0.0458,65.0
0.0459,65.2
0.046,65.2
0.0461,65.2
0.046200000000000005,65.2
0.0463,65.2
0.046400000000000004,65.2
0.0465,65.0
0.0466,65.0
0.046700000000000005,65.0
0.0468,65.0
0.046900000000000004,65.0
0.047,65.2
0.0471,65.0
0.0472,65.2
0.0473,65.2
0.047400000000000005,65.2
0.0475,64.8
0.0476,65.0
0.0477,65.0
0.0478,65.2
0.047900000000000005,65.4
0.048,65.0
0.048100000000000004,65.2
0.0482,65.2
0.0483,65.2
0.048400000000000006,65.2
0.0485,65.4
0.048600000000000004,65.0
0.0487,65.4
0.0488,65.2
0.0489,65.2
0.049,65.4
0.049100000000000005,65.4
0.0492,65.2
0.049300000000000004,65.2
0.0494,65.4
0.0495,65.2
0.049600000000000005,65.4
0.0497,65.2
0.049800000000000004,65.2
0.0499,65.2
0.05,65.2
0.050100000000000006,65.2
0.0502,65.4
0.050300000000000004,65.4
0.0504,65.4
0.0505,65.2
0.0506,65.4
0.0507,65.2
0.050800000000000005,65.4
0.0509,65.0
0.051000000000000004,65.6
0.0511,65.2
0.0512,65.2
0.051300000000000005,65.4
0.0514,65.4
0.051500000000000004,65.2
0.0516,65.4
0.0517,65.4
0.051800000000000006,65.4
0.0519,65.2
0.052000000000000005,65.4
0.0521,65.8
0.0522,65.4
0.0523,65.2
0.0524,65.4
0.052500000000000005,65.6
0.0526,65.2
0.052700000000000004,65.4
0.0528,65.4
0.0529,65.4
0.053000000000000005,65.4
0.0531,65.4
0.053200000000000004,65.6
0.0533,65.4
0.0534,65.8
0.053500000000000006,65.4
0.0536,65.4
0.053700000000000005,65.6
0.0538,65.4
0.0539,65.4
0.054,65.2
0.0541,65.2
0.054200000000000005,65.6
0.0543,65.6
0.054400000000000004,65.4
0.0545,65.8
0.0546,65.4
0.054700000000000006,65.6
0.0548,65.4
0.054900000000000004,65.6
0.055,65.4
0.0551,65.8
0.055200000000000006,65.6
0.0553,65.8
0.055400000000000005,65.6
0.0555,65.4
0.055600000000000004,65.8
0.0557,65.6
0.0558,65.6
0.055900000000000005,65.8
0.056,65.8
0.056100000000000004,65.8
0.0562,65.8
0.0563,65.6
0.056400000000000006,65.6
0.0565,65.6
0.056600000000000004,65.8
0.0567,65.6
0.0568,65.6
0.056900000000000006,65.4
0.057,65.6
0.057100000000000005,65.6
0.0572,65.6
0.057300000000000004,65.8
0.0574,65.4
0.0575,65.6
0.057600000000000005,65.6
0.0577,65.6
0.057800000000000004,65.6
0.0579,65.6
0.058,65.6
0.058100000000000006,65.6
0.0582,65.8
0.058300000000000005,65.8
0.0584,65.8
0.0585,65.6
0.058600000000000006,65.8
0.0587,65.8
0.058800000000000005,65.6
0.0589,65.8
0.059000000000000004,65.8
0.0591,65.6
0.0592,65.6
0.059300000000000005,65.8
0.0594,65.8
0.059500000000000004,65.8
0.0596,65.6
0.0597,65.8
0.059800000000000006,65.6
0.0599,65.6
0.060000000000000005,65.6
0.0601,65.8
0.060200000000000004,65.8
0.0603,65.6
0.0604,65.6
0.060500000000000005,65.8
0.0606,65.8
0.060700000000000004,66.0
0.0608,65.6
0.0609,65.8
0.061000000000000006,65.6
0.0611,65.8
0.061200000000000004,65.8
0.0613,65.8
0.0614,65.8
0.061500000000000006,66.2
0.0616,65.8
0.061700000000000005,65.8
0.0618,66.0
0.061900000000000004,66.0
0.062,66.0
0.0621,65.8
0.062200000000000005,65.8
0.0623,66.0
0.062400000000000004,65.8
0.0625,66.0
0.0626,66.0
0.0627,66.0
0.06280000000000001,65.8
0.0629,65.8
0.063,65.8
0.0631,66.0
0.0632,65.8
0.06330000000000001,66.2
0.0634,65.8
0.0635,66.0
0.0636,65.8
0.0637,66.0
0.06380000000000001,65.8
0.0639,65.8
0.064,66.0
0.0641,65.8
0.06420000000000001,66.0
0.06430000000000001,66.2
0.0644,66.0
0.0645,66.0
0.0646,66.0
0.06470000000000001,66.0
0.0648,66.0
0.0649,65.8
0.065,66.0
0.0651,66.0
0.06520000000000001,66.2
0.0653,66.0
0.0654,66.0
0.0655,66.0
0.0656,66.0
0.06570000000000001,66.0
0.0658,66.0
0.0659,66.2
0.066,65.8
0.0661,66.2
0.06620000000000001,66.0
0.0663,65.8
0.0664,66.0
0.0665,66.2
0.0666,66.0
0.06670000000000001,66.0
0.0668,66.0
0.0669,65.8
0.067,66.0
0.0671,66.2
0.06720000000000001,66.2
0.0673,66.0
0.0674,66.2
0.0675,66.0
0.06760000000000001,66.0
0.06770000000000001,66.0
0.0678,66.2
0.0679,66.0
0.068,66.0
0.06810000000000001,66.2
0.0682,66.2
0.0683,66.4
0.0684,66.0
0.0685,66.0
0.06860000000000001,66.4
0.0687,66.2
0.0688,66.2
0.0689,66.4
0.069,66.2
0.06910000000000001,66.2
0.0692,66.4
0.0693,66.4
0.0694,66.4
0.0695,66.2
0.06960000000000001,66.2
0.0697,66.2
0.0698,66.0
0.0699,66.0
0.07,66.2
0.07010000000000001,66.2
0.0702,66.2
0.0703,66.2
0.0704,66.2
0.07050000000000001,66.2
0.07060000000000001,66.4
0.0707,66.4
0.0708,66.4
0.0709,66.2
0.07100000000000001,66.2
0.0711,66.4
0.0712,66.2
0.0713,66.2
0.0714,66.4
0.07150000000000001,66.2
0.0716,66.2
0.0717,66.2
0.0718,66.2
0.0719,66.4
0.07200000000000001,66.4
0.0721,66.2
0.0722,66.4
0.0723,66.4
0.0724,66.4
0.07250000000000001,66.6
0.0726,66.2
0.0727,66.4
0.0728,66.4
0.0729,66.4
0.07300000000000001,66.4
0.0731,66.4
0.0732,66.4
0.0733,66.4
0.0734,66.4
0.07350000000000001,66.4
0.0736,66.6
0.0737,66.4
0.0738,66.2
0.07390000000000001,66.4
0.07400000000000001,66.4
0.0741,66.2
0.0742,66.4
0.0743,66.6
0.07440000000000001,66.4
0.0745,66.6
0.0746,66.4
0.0747,66.6
0.0748,66.6
0.07490000000000001,66.4
0.075,66.6
0.0751,66.4
0.0752,66.6
0.0753,66.4
0.07540000000000001,66.6
0.0755,66.6
0.0756,66.6
0.0757,66.8
0.0758,66.6
0.07590000000000001,66.6
0.076,66.6
0.0761,66.4
0.0762,66.6
0.0763,66.4
0.07640000000000001,66.6
0.0765,66.4
0.0766,66.6
0.0767,66.6
0.07680000000000001,66.6
0.07690000000000001,66.6
0.077,66.8
0.0771,66.8
0.0772,66.6
0.07730000000000001,66.4
0.07740000000000001,66.8
0.0775,66.6
0.0776,66.6
0.0777,66.6
0.07780000000000001,66.6
0.0779,66.8
0.078,66.8
0.0781,66.8
0.0782,66.6
0.07830000000000001,66.6
0.0784,66.8
0.0785,66.6
0.0786,66.8
0.0787,66.8
0.07880000000000001,66.8
0.0789,66.8
0.079,66.6
0.0791,66.6
0.0792,66.8
0.07930000000000001,66.8
0.0794,66.8
0.0795,66.8
0.0796,66.8
0.07970000000000001,66.8
0.07980000000000001,66.8
0.0799,66.8
0.08,66.8
0.0801,66.8
0.08020000000000001,66.8
0.08030000000000001,66.8
0.0804,66.8
0.0805,66.8
0.0806,66.8
0.08070000000000001,66.8
0.08080000000000001,66.8
0.0809,66.8
0.081,66.8
0.0811,66.8
0.08120000000000001,66.8
0.0813,66.8
0.0814,66.8
0.0815,67.0
0.0816,66.8
0.08170000000000001,66.8
0.0818,66.8
0.0819,67.0
0.082,67.0
0.0821,66.8
0.08220000000000001,67.0
0.0823,67.0
0.0824,67.0
0.0825,66.8
0.0826,66.8
0.08270000000000001,67.0
0.0828,67.0
0.0829,67.2
0.083,66.8
0.08310000000000001,67.0
0.08320000000000001,67.2
0.0833,66.8
0.0834,67.0
0.0835,67.0
0.08360000000000001,67.0
0.08370000000000001,67.0
0.0838,67.0
0.0839,67.0
0.084,66.8
0.08410000000000001,67.0
0.08420000000000001,67.2
0.0843,67.0
0.0844,67.2
0.0845,67.0
0.08460000000000001,67.0
0.0847,67.4
0.0848,67.2
0.0849,67.4
0.085,67.0
0.08510000000000001,67.2
0.0852,67.0
0.0853,67.2
0.0854,67.0
0.0855,67.2
0.08560000000000001,67.2
0.0857,67.2
0.0858,67.2
0.0859,67.2
0.08600000000000001,67.2
0.08610000000000001,67.2
0.0862,67.2
0.0863,67.2
0.0864,67.2
0.08650000000000001,67.2
0.08660000000000001,67.4
0.0867,67.2
0.0868,67.2
0.0869,67.2
0.08700000000000001,67.2
0.08710000000000001,67.2
0.0872,67.4
0.0873,67.4
0.0874,67.2
0.08750000000000001,67.4
0.0876,67.2
0.0877,67.2
0.0878,67.2
0.0879,67.2
0.08800000000000001,67.4
0.0881,67.4
0.0882,67.2
0.0883,67.2
0.0884,67.2
0.08850000000000001,67.2
0.0886,67.4
0.0887,67.2
0.0888,67.6
0.0889,67.4
0.08900000000000001,67.6
0.0891,67.2
0.0892,67.4
0.0893,67.4
0.08940000000000001,67.4
0.08950000000000001,67.2
0.0896,67.4
0.0897,67.2
0.0898,67.4
0.08990000000000001,67.4
0.09000000000000001,67.4
0.0901,67.4
0.0902,67.6
0.0903,67.4
0.09040000000000001,67.2
0.09050000000000001,67.4
0.0906,67.6
0.0907,67.4
0.0908,67.4
0.09090000000000001,67.6
0.091,67.4
0.0911,67.6
0.0912,67.4
0.0913,67.6
0.09140000000000001,67.4
0.0915,67.6
0.0916,67.6
0.0917,67.6
0.0918,67.6
0.09190000000000001,67.4
0.092,67.6
0.0921,67.4
0.0922,67.6
0.09230000000000001,67.6
0.09240000000000001,67.6
0.0925,67.6
0.0926,67.6
0.0927,67.6
0.09280000000000001,67.6
0.09290000000000001,67.6
0.093,67.6
0.0931,67.6
0.0932,67.6
0.09330000000000001,67.6
0.09340000000000001,67.6
0.0935,67.6
0.0936,67.4
0.0937,67.6
0.09380000000000001,67.8
0.09390000000000001,67.6
0.094,67.6
0.0941,67.6
0.0942,67.6
0.09430000000000001,67.8
0.0944,67.8
0.0945,67.6
0.0946,67.6
0.0947,67.6
0.09480000000000001,67.6
0.0949,67.6
0.095,67.6
0.0951,67.6
0.0952,68.0
0.09530000000000001,67.6
0.0954,68.0
0.0955,67.8
0.0956,67.8
0.09570000000000001,68.0
0.09580000000000001,67.6
0.0959,68.0
0.096,67.8
0.0961,67.6
0.09620000000000001,67.8
0.09630000000000001,67.8
0.0964,67.8
0.0965,68.0
0.0966,67.8
0.09670000000000001,67.8
0.09680000000000001,67.8
0.0969,68.0
0.097,67.8
0.0971,67.8
0.09720000000000001,67.8
0.09730000000000001,68.0
0.0974,68.0
0.0975,67.8
0.0976,67.6
0.09770000000000001,67.6
0.0978,68.0
0.0979,67.8
0.098,68.0
0.0981,67.8
0.09820000000000001,68.0
0.0983,67.8
0.0984,67.8
0.0985,67.8
0.09860000000000001,68.0
0.09870000000000001,67.8
0.0988,68.0
0.0989,68.0
0.099,67.8
0.09910000000000001,68.0
0.09920000000000001,68.0
0.0993,68.0
0.0994,68.0
0.0995,67.8
0.09960000000000001,68.0
0.09970000000000001,68.0
0.0998,68.2
0.0999,68.0
0.1,67.8
0.10010000000000001,68.0
0.10020000000000001,68.0
0.1003,68.0
0.1004,68.0
0.1005,68.2
0.10060000000000001,68.0
0.10070000000000001,68.0
0.1008,68.2
0.1009,68.0
0.101,68.2
0.10110000000000001,68.0
0.1012,68.2
0.1013,68.0
0.1014,68.2
0.1015,68.2
0.10160000000000001,68.4
0.1017,68.0
0.1018,68.2
0.1019,68.2
0.10200000000000001,68.2
0.10210000000000001,68.2
0.1022,68.2
0.1023,68.0
0.1024,68.2
0.10250000000000001,68.2
0.10260000000000001,68.2
0.1027,68.2
0.1028,68.4
0.1029,68.2
0.10300000000000001,68.4
0.10310000000000001,68.2
0.1032,68.2
0.1033,68.4
0.1034,68.4
0.10350000000000001,68.0
0.10360000000000001,68.2
0.1037,68.4
0.1038,68.2
0.1039,68.4
0.10400000000000001,68.4
0.1041,68.2
0.1042,68.4
0.1043,68.2
0.1044,68.2
0.10450000000000001,68.4
0.1046,68.4
0.1047,68.4
0.1048,68.4
0.10490000000000001,68.2
0.10500000000000001,68.4
0.1051,68.6
0.1052,68.4
0.1053,68.4
0.10540000000000001,68.4
0.10550000000000001,68.4
0.1056,68.4
0.1057,68.4
0.1058,68.4
0.10590000000000001,68.6
0.10600000000000001,68.4
0.1061,68.6
0.1062,68.4
0.1063,68.6
0.10640000000000001,68.6
0.10650000000000001,68.4
0.1066,68.2
0.1067,68.8
0.1068,68.4
0.10690000000000001,68.4
0.10700000000000001,68.4
0.1071,68.4
0.1072,68.4
0.1073,68.4
0.10740000000000001,68.4
0.1075,68.4
0.1076,68.6
0.1077,68.6
0.1078,68.4
0.10790000000000001,68.6
0.108,68.6
0.1081,68.4
0.1082,68.6
0.10830000000000001,68.4
0.10840000000000001,68.6
0.1085,68.6
0.1086,68.4
0.1087,68.6
0.10880000000000001,68.8
0.10890000000000001,68.6
0.109,68.6
0.1091,68.6
0.1092,68.6
0.10930000000000001,68.6
0.10940000000000001,68.6
0.1095,68.6
0.1096,68.6
0.1097,68.6
0.10980000000000001,68.6
0.10990000000000001,68.8
0.11,68.6
0.1101,68.8
0.1102,68.6
0.11030000000000001,68.8
0.11040000000000001,68.6
0.1105,68.8
0.1106,68.8
0.1107,68.8
0.11080000000000001,68.8
0.1109,68.8
0.111,68.8
0.1111,68.6
0.11120000000000001,68.8
0.11130000000000001,68.8
0.1114,68.8
0.1115,68.8
0.1116,69.0
0.11170000000000001,68.8
0.11180000000000001,68.8
0.1119,68.8
0.112,68.8
0.1121,68.8
0.11220000000000001,69.0
0.11230000000000001,68.8
0.1124,68.8
0.1125,68.8
0.1126,68.8
0.11270000000000001,68.8
0.11280000000000001,69.0
0.1129,68.8
0.113,68.8
0.1131,69.0
0.11320000000000001,69.0
0.11330000000000001,68.8
0.1134,68.8
0.1135,68.8
0.1136,69.0
0.11370000000000001,68.8
0.11380000000000001,69.0
0.1139,68.8
0.114,69.0
0.11410000000000001,68.8
0.11420000000000001,69.0
0.1143,69.0
0.1144,68.8
0.1145,69.0
0.11460000000000001,69.0
0.11470000000000001,69.2
0.1148,69.0
0.1149,69.0
0.115,69.0
0.11510000000000001,69.0
0.11520000000000001,69.2
0.1153,69.0
0.1154,69.0
0.1155,69.2
0.11560000000000001,68.8
0.11570000000000001,69.2
0.1158,68.8
0.1159,69.2
0.116,69.0
0.11610000000000001,69.0
0.11620000000000001,68.8
0.1163,69.2
0.1164,69.2
0.1165,69.0
0.11660000000000001,69.0
0.11670000000000001,69.2
0.1168,69.0
0.1169,69.0
0.117,69.0
0.11710000000000001,69.0
0.11720000000000001,69.2
0.1173,69.0
0.1174,69.0
0.11750000000000001,69.0
0.11760000000000001,69.2
0.1177,69.0
0.1178,69.2
0.1179,69.0
0.11800000000000001,69.2
0.11810000000000001,69.4
0.1182,69.2
0.1183,69.2
0.1184,69.2
0.11850000000000001,69.2
0.11860000000000001,69.2
0.1187,69.2
0.1188,69.2
0.1189,69.2
0.11900000000000001,69.2
0.11910000000000001,69.2
0.1192,69.2
0.1193,69.4
0.1194,69.2
0.11950000000000001,69.4
0.11960000000000001,69.2
0.1197,69.4
0.1198,69.0
0.1199,69.6
0.12000000000000001,69.2
0.12010000000000001,69.4
0.1202,69.4
0.1203,69.2
0.12040000000000001,69.2
0.12050000000000001,69.4
0.1206,69.4
0.1207,69.4
0.1208,69.4
0.12090000000000001,69.4
0.12100000000000001,69.4
0.1211,69.6
0.1212,69.6
0.1213,69.4
0.12140000000000001,69.4
0.12150000000000001,69.4
0.1216,69.4
0.1217,69.4
0.1218,69.4
0.12190000000000001,69.4
0.12200000000000001,69.4
0.1221,69.4
0.1222,69.6
0.1223,69.6
0.12240000000000001,69.6
0.12250000000000001,69.8
0.1226,69.6
0.1227,69.6
0.1228,69.6
0.12290000000000001,69.8
0.12300000000000001,69.4
0.1231,69.6
0.1232,69.6
0.1233,69.4
0.12340000000000001,69.6
0.12350000000000001,69.8
0.1236,69.6
0.1237,69.6
0.12380000000000001,69.4
0.12390000000000001,69.8
0.124,69.8
0.1241,69.6
0.1242,69.8
0.12430000000000001,69.4
0.12440000000000001,69.6
0.1245,69.6
0.1246,69.6
0.1247,69.6
0.12480000000000001,69.8
0.12490000000000001,69.8
0.125,69.4
0.12510000000000002,69.8
0.1252,69.8
0.1253,69.8
0.1254,69.8
0.1255,69.8
0.12560000000000002,69.6
0.1257,69.6
0.1258,69.6
0.1259,69.8
0.126,69.6
0.12610000000000002,69.6
0.1262,70.0
0.1263,69.8
0.1264,69.6
0.1265,69.8
0.12660000000000002,69.8
0.1267,69.8
0.1268,69.6
0.1269,69.6
0.127,69.6
0.12710000000000002,69.8
0.1272,69.6
0.1273,69.8
0.1274,69.8
0.1275,69.8
0.12760000000000002,70.0
0.1277,70.0
0.1278,69.8
0.1279,70.0
0.128,69.8
0.12810000000000002,69.8
0.1282,70.0
0.1283,70.0
0.12840000000000001,70.0
0.1285,70.0
0.12860000000000002,70.0
0.1287,70.0
0.1288,70.0
0.12890000000000001,70.0
0.129,70.0
0.1291,70.0
0.1292,70.0
0.1293,69.6
0.12940000000000002,70.0
0.1295,70.0
0.1296,70.0
0.1297,70.0
0.1298,70.2
0.12990000000000002,69.8
0.13,70.0
0.1301,70.0
0.1302,70.2
0.1303,69.8
0.13040000000000002,70.0
0.1305,70.0
0.1306,70.0
0.1307,69.8
0.1308,70.4
0.13090000000000002,70.2
0.131,70.0
0.1311,70.4
0.1312,70.2
0.1313,70.2
0.13140000000000002,70.0
0.1315,70.0
0.1316,70.4
0.1317,70.2
0.1318,70.2
0.13190000000000002,70.2
0.132,70.0
0.1321,70.2
0.1322,70.2
0.1323,70.2
0.13240000000000002,70.2
0.1325,70.2
0.1326,70.4
0.1327,70.4
0.1328,70.2
0.13290000000000002,70.2
0.133,70.0
0.1331,70.4
0.1332,70.2
0.1333,70.0
0.13340000000000002,70.0
0.1335,70.2
0.1336,70.4
0.1337,70.4
0.1338,70.4
0.13390000000000002,70.4
0.134,70.4
0.1341,70.4
0.1342,70.2
0.1343,70.4
0.13440000000000002,70.2
0.1345,70.4
0.1346,70.4
0.13470000000000001,70.2
0.1348,70.4
0.13490000000000002,70.2
0.135,70.2
0.1351,70.4
0.13520000000000001,70.4
0.1353,70.4
0.13540000000000002,70.4
0.1355,70.2
0.1356,70.2
0.13570000000000002,70.2
0.1358,70.4
0.1359,70.2
0.136,70.2
0.1361,70.4
0.13620000000000002,70.2
0.1363,70.2
0.1364,70.4
0.1365,70.4
0.1366,70.2
0.13670000000000002,70.2
0.1368,70.4
0.1369,70.4
0.137,70.4
0.1371,70.2
0.13720000000000002,70.4
0.1373,70.4
0.1374,70.6
0.1375,70.4
0.1376,70.6
0.13770000000000002,70.2
0.1378,70.6
0.1379,70.6
0.138,70.4
0.1381,70.6
0.13820000000000002,70.6
0.1383,70.6
0.1384,70.4
0.1385,70.4
0.1386,70.6
0.13870000000000002,70.6
0.1388,70.4
0.1389,70.8
0.139,70.6
0.1391,70.6
0.13920000000000002,70.6
0.1393,70.6
0.1394,70.6
0.1395,70.4
0.1396,70.6
0.13970000000000002,70.8
0.1398,70.4
0.1399,70.6
0.14,70.4
0.1401,70.8
0.14020000000000002,70.4
0.1403,70.6
0.1404,70.4
0.1405,70.8
0.1406,70.4
0.14070000000000002,70.6
0.1408,70.6
0.1409,70.6
0.14100000000000001,70.6
0.1411,70.8
0.14120000000000002,70.6
0.1413,70.6
0.1414,70.6
0.14150000000000001,70.8
0.1416,70.8
0.14170000000000002,70.8
0.1418,70.6
0.1419,70.6
0.14200000000000002,70.6
0.1421,70.6
0.1422,70.8
0.1423,70.8
0.1424,70.8
0.14250000000000002,70.8
0.1426,70.8
0.1427,70.6
0.1428,70.8
0.1429,70.6
0.14300000000000002,70.8
0.1431,70.8
0.1432,70.8
0.1433,70.6
0.1434,70.6
0.14350000000000002,70.6
0.1436,71.0
0.1437,70.8
0.1438,70.8
0.1439,70.8
0.14400000000000002,70.8
0.1441,70.6
0.1442,71.0
0.1443,71.0
0.1444,70.8
0.14450000000000002,70.8
0.1446,70.8
0.1447,70.8
0.1448,70.6
0.1449,71.0
0.14500000000000002,70.8
0.1451,71.0
0.1452,70.8
0.1453,71.0
0.1454,71.0
0.14550000000000002,70.8
0.1456,70.8
0.1457,71.2
0.1458,70.8
0.1459,70.8
0.14600000000000002,71.0
0.1461,70.8
0.1462,70.8
0.1463,70.8
0.1464,70.8
0.14650000000000002,70.6
0.1466,70.8
0.1467,70.8
0.1468,70.8
0.1469,71.0
0.14700000000000002,70.6
0.1471,70.8
0.1472,70.8
0.14730000000000001,71.0
0.1474,71.0
0.14750000000000002,71.0
0.1476,70.8
0.1477,71.0
0.14780000000000001,71.0
0.1479,71.0
0.14800000000000002,71.0
0.1481,71.0
0.1482,71.0
0.14830000000000002,71.0
0.1484,71.0
0.14850000000000002,71.2
0.1486,71.2
0.1487,71.0
0.14880000000000002,71.0
0.1489,71.2
0.149,71.0
0.1491,71.0
0.1492,71.2
0.14930000000000002,71.0
0.1494,71.0
0.1495,71.0
0.1496,71.2
0.1497,71.0
0.14980000000000002,71.2
0.1499,71.0
0.15,71.2
0.1501,71.2
0.1502,70.8
0.15030000000000002,71.2
0.1504,71.0
0.1505,71.2
0.1506,71.2
0.1507,71.0
0.15080000000000002,71.2
0.1509,71.0
0.151,71.2
0.1511,71.2
0.1512,71.2
0.15130000000000002,70.8
0.1514,71.4
0.1515,71.2
0.1516,71.2
0.1517,71.2
0.15180000000000002,71.2
0.1519,71.2
0.152,71.2
0.1521,71.2
0.1522,71.2
0.15230000000000002,71.2
0.1524,71.2
0.1525,71.2
0.1526,71.0
0.1527,71.0
0.15280000000000002,71.2
0.1529,71.4
0.153,71.2
0.1531,71.2
0.1532,71.2
0.15330000000000002,71.2
0.1534,71.2
0.1535,71.2
0.15360000000000001,71.4
0.1537,71.6
0.15380000000000002,71.2
0.1539,71.4
0.154,71.2
0.15410000000000001,71.4
0.1542,71.4
0.15430000000000002,71.2
0.1544,71.2
0.1545,71.2
0.15460000000000002,71.4
0.1547,71.2
0.15480000000000002,71.4
0.1549,71.4
0.155,71.6
0.15510000000000002,71.4
0.1552,71.2
0.1553,71.4
0.1554,71.2
0.1555,71.4
0.15560000000000002,71.4
0.1557,71.2
0.1558,71.4
0.1559,71.4
0.156,71.2
0.15610000000000002,71.4
0.1562,71.4
0.1563,71.4
0.1564,71.0
0.1565,71.2
0.15660000000000002,71.2
0.1567,71.2
0.1568,71.4
0.1569,71.2
0.157,71.2
0.15710000000000002,71.2
0.1572,71.4
0.1573,71.6
0.1574,71.6
0.1575,71.2
0.15760000000000002,71.4
0.1577,71.6
0.1578,71.4
0.1579,71.4
0.158,71.4
0.15810000000000002,71.4
0.1582,71.6
0.1583,71.6
0.1584,71.6
0.1585,71.6
0.15860000000000002,71.6
0.1587,71.6
0.1588,71.4
0.1589,71.4
0.159,71.4
0.15910000000000002,71.4
0.1592,71.4
0.1593,71.4
0.15940000000000001,71.2
0.1595,71.6
0.15960000000000002,71.4
0.1597,71.6
0.1598,71.6
0.15990000000000001,71.6
0.16,71.4
0.16010000000000002,71.4
0.1602,71.6
0.1603,71.6
0.16040000000000001,71.4
0.1605,71.6
0.16060000000000002,71.4
0.1607,71.6
0.1608,71.6
0.16090000000000002,71.6
0.161,71.6
0.16110000000000002,71.6
0.1612,71.4
0.1613,71.6
0.16140000000000002,71.6
0.1615,71.6
0.16160000000000002,71.6
0.1617,71.6
0.1618,71.6
0.16190000000000002,71.6
0.162,71.8
0.1621,71.6
0.1622,71.8
0.1623,72.0
0.16240000000000002,71.6
0.1625,71.8
0.1626,71.8
0.1627,71.6
0.1628,71.6
0.16290000000000002,71.4
0.163,71.6
0.1631,71.8
0.1632,71.6
0.1633,72.0
0.16340000000000002,72.0
0.1635,72.0
0.1636,71.6
0.1637,71.8
0.1638,71.8
0.16390000000000002,71.8
0.164,72.0
0.1641,71.8
0.1642,71.6
0.1643,71.8
0.16440000000000002,71.8
0.1645,71.8
0.1646,71.8
0.1647,71.6
0.1648,71.8
0.16490000000000002,72.0
0.165,72.0
0.1651,71.6
0.1652,71.8
0.1653,71.6
0.16540000000000002,71.8
0.1655,72.0
0.1656,71.8
0.16570000000000001,71.8
0.1658,72.0
0.16590000000000002,71.8
0.166,71.8
0.1661,71.8
0.16620000000000001,72.0
0.1663,71.8
0.16640000000000002,71.8
0.1665,71.8
0.1666,71.8
0.16670000000000001,72.0
0.1668,71.8
0.16690000000000002,71.8
0.167,71.8
0.1671,72.0
0.16720000000000002,72.0
0.1673,72.0
0.16740000000000002,71.8
0.1675,72.0
0.1676,72.0
0.16770000000000002,72.0
0.1678,72.2
0.16790000000000002,72.0
0.168,71.8
0.1681,72.0
0.16820000000000002,72.0
0.1683,72.0
0.16840000000000002,72.0
0.1685,71.8
0.1686,72.0
0.16870000000000002,71.8
0.1688,71.8
0.1689,71.8
0.169,72.0
0.1691,72.2
0.16920000000000002,71.8
0.1693,71.8
0.1694,72.0
0.1695,71.8
0.1696,72.0
0.16970000000000002,72.0
0.1698,72.0
0.1699,72.0
0.17,72.0
0.1701,72.0
0.17020000000000002,72.0
0.1703,71.8
0.1704,72.0
0.1705,72.0
0.1706,72.0
0.17070000000000002,72.0
0.1708,72.0
0.1709,72.2
0.171,72.0
0.1711,72.0
0.17120000000000002,72.0
0.1713,72.0
0.1714,72.0
0.1715,72.0
0.1716,71.8
0.17170000000000002,72.0
0.1718,72.0
0.1719,72.2
0.17200000000000001,72.2
0.1721,72.0
0.17220000000000002,72.0
0.1723,72.4
0.1724,72.0
0.17250000000000001,72.2
0.1726,72.0
0.17270000000000002,72.2
0.1728,72.0
0.1729,72.0
0.17300000000000001,72.2
0.1731,72.0
0.17320000000000002,72.2
0.1733,72.2
0.1734,72.2
0.17350000000000002,72.2
0.1736,72.2
0.17370000000000002,72.2
0.1738,72.0
0.1739,72.0
0.17400000000000002,72.2
0.1741,72.2
0.17420000000000002,72.0
0.1743,72.0
0.1744,72.2
0.17450000000000002,72.0
0.1746,72.0
0.17470000000000002,72.2
0.1748,72.2
0.1749,72.0
0.17500000000000002,72.2
0.1751,72.2
0.1752,72.0
0.1753,72.2
0.1754,72.2
0.17550000000000002,72.2
0.1756,72.0
0.1757,72.2
0.1758,72.2
0.1759,72.0
0.17600000000000002,72.2
0.1761,72.2
0.1762,72.0
0.1763,72.0
0.1764,72.0
0.17650000000000002,72.0
0.1766,72.4
0.1767,72.0
0.1768,72.2
0.1769,72.0
0.17700000000000002,72.4
0.1771,72.4
0.1772,72.4
0.1773,72.2
0.1774,72.4
0.17750000000000002,72.2
0.1776,72.2
0.1777,72.2
0.1778,72.4
0.1779,72.2
0.17800000000000002,72.4
0.1781,72.2
0.1782,72.4
0.17830000000000001,72.4
0.1784,72.0
0.17850000000000002,72.4
0.1786,72.2
0.1787,72.2
0.17880000000000001,72.2
0.1789,72.2
0.17900000000000002,72.2
0.1791,72.0
0.1792,72.2
0.17930000000000001,72.4
0.1794,72.4
0.17950000000000002,72.2
0.1796,72.0
0.1797,72.2
0.17980000000000002,72.2
0.1799,72.2
0.18000000000000002,72.2
0.1801,72.2
0.1802,72.2
0.18030000000000002,72.4
0.1804,72.2
0.18050000000000002,72.2
0.1806,72.4
0.1807,72.4
0.18080000000000002,72.2
0.1809,72.4
0.18100000000000002,72.2
0.1811,72.2
0.1812,72.6
0.18130000000000002,72.2
0.1814,72.2
0.18150000000000002,72.4
0.1816,72.2
0.1817,72.4
0.18180000000000002,72.4
0.1819,72.4
0.182,72.4
0.1821,72.4
0.1822,72.4
0.18230000000000002,72.4
0.1824,72.4
0.1825,72.2
0.1826,72.4
0.1827,72.2
0.18280000000000002,72.2
0.1829,72.2
0.183,72.4
0.1831,72.4
0.1832,72.4
0.18330000000000002,72.4
0.1834,72.6
0.1835,72.4
0.1836,72.4
0.1837,72.2
0.18380000000000002,72.4
0.1839,72.4
0.184,72.4
0.1841,72.2
0.1842,72.4
0.18430000000000002,72.6
0.1844,72.2
0.1845,72.4
0.18460000000000001,72.4
0.1847,72.4
0.18480000000000002,72.4
0.1849,72.4
0.185,72.4
0.18510000000000001,72.2
0.1852,72.4
0.18530000000000002,72.4
0.1854,72.4
0.1855,72.4
0.18560000000000001,72.4
0.1857,72.4
0.18580000000000002,72.2
0.1859,72.4
0.186,72.6
0.18610000000000002,72.2
0.1862,72.4
0.18630000000000002,72.2
0.1864,72.4
0.1865,72.6
0.18660000000000002,72.4
0.1867,72.4
0.18680000000000002,72.4
0.1869,72.4
0.187,72.6
0.18710000000000002,72.6
0.1872,72.4
0.18730000000000002,72.6
0.1874,72.6
0.1875,72.4
0.18760000000000002,72.6
0.1877,72.4
0.18780000000000002,72.2
0.1879,72.6
0.188,72.4
0.18810000000000002,72.6
0.1882,72.4
0.1883,72.4
0.1884,72.6
0.1885,72.4
0.18860000000000002,72.4
0.1887,72.4
0.1888,72.6
0.1889,72.4
0.189,72.6
0.18910000000000002,72.4
0.1892,72.4
0.1893,72.6
0.1894,72.6
0.1895,72.2
0.18960000000000002,72.6
0.1897,72.6
0.1898,72.4
0.1899,72.4
0.19,72.4
0.19010000000000002,72.6
0.1902,72.4
0.1903,72.2
0.1904,72.4
0.1905,72.6
0.19060000000000002,72.6
0.1907,72.6
0.1908,72.6
0.19090000000000001,72.4
0.191,72.8
0.19110000000000002,72.6
0.1912,72.4
0.1913,72.6
0.19140000000000001,72.6
0.1915,72.6
0.19160000000000002,72.6
0.1917,72.6
0.1918,72.6
0.19190000000000002,72.6
0.192,72.6
0.19210000000000002,72.4
0.1922,72.6
0.1923,72.6
0.19240000000000002,72.6
0.1925,72.8
0.19260000000000002,72.4
0.1927,72.6
0.1928,72.4
0.19290000000000002,72.4
0.193,72.6
0.19310000000000002,72.8
0.1932,72.6
0.1933,72.6
0.19340000000000002,72.6
0.1935,72.6
0.19360000000000002,72.6
0.1937,72.6
0.1938,72.6
0.19390000000000002,72.8
0.194,72.6
0.19410000000000002,72.4
0.1942,72.8
0.1943,72.4
0.19440000000000002,72.6
0.1945,72.8
0.19460000000000002,72.6
0.1947,72.8
0.1948,72.8
0.19490000000000002,72.6
0.195,72.6
0.1951,72.6
0.1952,72.6
0.1953,72.4
0.19540000000000002,72.6
0.1955,72.6
0.1956,72.4
0.1957,72.4
0.1958,72.4
0.19590000000000002,72.6
0.196,72.6
0.1961,72.6
0.1962,72.6
0.1963,72.6
0.19640000000000002,72.6
0.1965,72.4
0.1966,72.4
0.1967,72.4
0.1968,72.8
0.19690000000000002,72.6
0.197,72.8
0.1971,72.6
0.19720000000000001,72.8
0.1973,72.6
0.19740000000000002,72.8
0.1975,72.8
0.1976,72.6
0.19770000000000001,72.6
0.1978,72.8
0.19790000000000002,72.8
0.198,72.8
0.1981,72.8
0.19820000000000002,72.6
0.1983,72.6
0.19840000000000002,72.6
0.1985,72.6
0.1986,72.6
0.19870000000000002,72.8
0.1988,72.6
0.19890000000000002,72.6
0.199,72.4
0.1991,72.8
0.19920000000000002,72.6
0.1993,72.8
0.19940000000000002,72.4
0.1995,72.6
0.1996,72.6
0.19970000000000002,72.6
0.1998,72.6
0.19990000000000002,72.8
0.2,72.8
0.2001,72.6
0.20020000000000002,72.6
0.2003,72.8
0.20040000000000002,72.6
0.2005,72.8
0.2006,72.8
0.20070000000000002,72.8
0.2008,72.6
0.20090000000000002,72.8
0.201,72.6
0.2011,72.6
0.20120000000000002,72.8
0.2013,72.6
0.20140000000000002,72.8
0.2015,72.6
0.2016,72.8
0.20170000000000002,72.6
0.2018,72.8
0.2019,72.8
0.202,72.8
0.2021,72.6
0.20220000000000002,72.6
0.2023,72.6
0.2024,72.6
0.2025,72.6
0.2026,72.6
0.20270000000000002,72.6
0.2028,72.6
0.2029,72.8
0.203,72.6
0.2031,72.8
0.20320000000000002,72.8
0.2033,72.6
0.2034,72.8
0.20350000000000001,72.6
0.2036,72.8
0.20370000000000002,72.8
0.2038,72.8
0.2039,72.8
0.20400000000000001,72.6
0.2041,72.6
0.20420000000000002,72.6
0.2043,72.8
0.2044,72.8
0.20450000000000002,72.8
0.2046,72.8
0.20470000000000002,72.8
0.2048,72.8
0.2049,72.4
0.20500000000000002,72.6
0.2051,73.0
0.20520000000000002,72.6
0.2053,72.6
0.2054,72.8
0.20550000000000002,72.8
0.2056,72.8
0.20570000000000002,72.8
0.2058,72.8
0.2059,72.6
0.20600000000000002,72.6
0.2061,72.6
0.20620000000000002,72.8
0.2063,72.8
0.2064,72.6
0.20650000000000002,72.6
0.2066,72.8
0.20670000000000002,72.6
0.2068,72.8
0.2069,72.8
0.20700000000000002,72.6
0.2071,72.8
0.20720000000000002,72.6
0.2073,72.6
0.2074,72.6
0.20750000000000002,72.6
0.2076,72.8
0.20770000000000002,72.8
0.2078,72.8
0.2079,72.8
0.20800000000000002,72.8
0.2081,72.8
0.2082,72.8
0.2083,72.6
0.2084,72.6
0.20850000000000002,72.4
0.2086,72.8
0.2087,72.6
0.2088,72.6
0.2089,72.6
0.20900000000000002,72.8
0.2091,72.6
0.2092,72.8
0.2093,72.6
0.2094,72.6
0.20950000000000002,72.8
0.2096,72.8
0.2097,72.8
0.20980000000000001,73.0
0.2099,72.6
0.21000000000000002,72.8
0.2101,72.6
0.2102,72.6
0.21030000000000001,72.8
0.2104,72.8
0.21050000000000002,72.8
0.2106,72.6
0.2107,72.6
0.21080000000000002,72.6
0.2109,72.6
0.21100000000000002,72.6
0.2111,72.6
0.2112,72.8
0.21130000000000002,72.8
0.2114,72.8
0.21150000000000002,72.8
0.2116,72.8
0.2117,72.8
0.21180000000000002,72.8
0.2119,72.8
0.21200000000000002,72.8
0.2121,72.6
0.2122,72.6
0.21230000000000002,73.0
0.2124,72.6
0.21250000000000002,72.6
0.2126,72.8
0.2127,72.8
0.21280000000000002,72.6
0.2129,72.8
0.21300000000000002,72.4
0.2131,72.8
0.2132,72.6
0.21330000000000002,73.0
0.2134,72.6
0.21350000000000002,72.8
0.2136,72.8
0.2137,72.8
0.21380000000000002,72.4
0.2139,72.4
0.21400000000000002,72.6
0.2141,72.8
0.2142,72.8
0.21430000000000002,72.8
0.2144,72.6
0.21450000000000002,72.6
0.2146,72.8
0.2147,72.6
0.21480000000000002,72.6
0.2149,72.6
0.215,72.8
0.2151,72.6
0.2152,72.4
0.21530000000000002,72.6
0.2154,72.6
0.2155,72.6
0.2156,72.6
0.2157,72.8
0.21580000000000002,72.6
0.2159,72.4
0.216,72.6
0.21610000000000001,72.6
0.2162,72.6
0.21630000000000002,72.4
0.2164,72.4
0.2165,72.8
0.21660000000000001,72.6
0.2167,72.6
0.21680000000000002,72.8
0.2169,72.4
0.217,72.8
0.21710000000000002,72.6
0.2172,72.6
0.21730000000000002,72.6
0.2174,72.6
0.2175,72.6
0.21760000000000002,72.6
0.2177,72.8
0.21780000000000002,72.6
0.2179,72.6
0.218,72.4
0.21810000000000002,72.6
0.2182,72.8
0.21830000000000002,72.6
0.2184,72.6
0.2185,73.0
0.21860000000000002,72.6
0.2187,72.8
0.21880000000000002,72.6
0.2189,72.6
0.219,72.6
0.21910000000000002,72.6
0.2192,72.6
0.21930000000000002,72.6
0.2194,72.6
0.2195,72.6
0.21960000000000002,72.6
0.2197,72.6
0.21980000000000002,72.6
0.2199,72.6
0.22,72.6
0.22010000000000002,72.4
0.2202,72.6
0.22030000000000002,72.8
0.2204,72.6
0.2205,72.6
0.22060000000000002,72.6
0.2207,72.6
0.22080000000000002,72.6
0.2209,72.6
0.221,72.6
0.22110000000000002,72.6
0.2212,72.6
0.22130000000000002,72.8
0.2214,72.6
0.2215,72.8
0.22160000000000002,72.6
0.2217,72.6
0.2218,72.6
0.22190000000000001,72.8
0.222,72.6
0.22210000000000002,72.6
0.2222,72.6
0.2223,72.6
0.22240000000000001,72.6
0.2225,72.4
0.22260000000000002,72.6
0.2227,72.4
0.2228,72.6
0.22290000000000001,72.6
0.223,72.8
0.22310000000000002,72.6
0.2232,72.6
0.2233,72.4
0.22340000000000002,72.4
0.2235,72.6
0.22360000000000002,72.6
0.2237,72.6
0.2238,72.4
0.22390000000000002,72.6
0.224,72.4
0.22410000000000002,72.6
0.2242,72.6
0.2243,72.6
0.22440000000000002,72.6
0.2245,72.6
0.22460000000000002,72.4
0.2247,72.4
0.2248,72.4
0.22490000000000002,72.6
0.225,72.4
0.22510000000000002,72.2
0.2252,72.6
0.2253,72.6
0.22540000000000002,72.4
0.2255,72.4
0.22560000000000002,72.8
0.2257,72.4
0.2258,72.4
0.22590000000000002,72.4
0.226,72.4
0.22610000000000002,72.6
0.2262,72.2
0.2263,72.4
0.22640000000000002,72.6
0.2265,72.6
0.22660000000000002,72.8
0.2267,72.6
0.2268,72.4
0.22690000000000002,72.4
0.227,72.6
0.22710000000000002,72.4
0.2272,72.4
0.2273,72.4
0.22740000000000002,72.4
0.2275,72.6
0.22760000000000002,72.4
0.2277,72.4
0.2278,72.6
0.22790000000000002,72.4
0.228,72.6
0.2281,72.4
0.22820000000000001,72.4
0.2283,72.4
0.22840000000000002,72.6
0.2285,72.4
0.2286,72.6
0.22870000000000001,72.4
0.2288,72.6
0.22890000000000002,72.4
0.229,72.6
0.2291,72.4
0.22920000000000001,72.4
0.2293,72.4
0.22940000000000002,72.4
0.2295,72.4
0.2296,72.6
0.22970000000000002,72.4
0.2298,72.4
0.22990000000000002,72.2
0.23,72.2
0.2301,72.4
0.23020000000000002,72.6
0.2303,72.4
0.23040000000000002,72.4
0.2305,72.2
0.2306,72.4
0.23070000000000002,72.4
0.2308,72.2
0.23090000000000002,72.4
0.231,72.2
0.2311,72.4
0.23120000000000002,72.4
0.2313,72.4
0.23140000000000002,72.4
0.2315,72.6
0.2316,72.4
0.23170000000000002,72.4
0.2318,72.6
0.23190000000000002,72.2
0.232,72.2
0.2321,72.4
0.23220000000000002,72.4
0.2323,72.4
0.23240000000000002,72.4
0.2325,72.4
0.2326,72.6
0.23270000000000002,72.4
0.2328,72.4
0.23290000000000002,72.4
0.233,72.4
0.2331,72.6
0.23320000000000002,72.2
0.2333,72.4
0.23340000000000002,72.4
0.2335,72.6
0.2336,72.4
0.23370000000000002,72.2
0.2338,72.4
0.23390000000000002,72.2
0.234,72.2
0.2341,72.4
0.23420000000000002,72.4
0.2343,72.4
0.23440000000000003,72.4
0.23450000000000001,72.2
0.2346,72.2
0.23470000000000002,72.4
0.2348,72.4
0.2349,72.2
0.23500000000000001,72.2
0.2351,72.4
0.23520000000000002,72.2
0.2353,72.2
0.2354,72.4
0.23550000000000001,72.4
0.2356,72.0
0.23570000000000002,72.2
0.2358,72.4
0.2359,72.4
0.23600000000000002,72.4
0.2361,72.2
0.23620000000000002,72.2
0.2363,72.2
0.2364,72.2
0.23650000000000002,72.4
0.2366,72.4
0.23670000000000002,72.4
0.2368,72.4
0.2369,72.4
0.23700000000000002,72.4
0.2371,72.2
0.23720000000000002,72.4
0.2373,72.2
0.2374,72.2
0.23750000000000002,72.2
0.2376,72.4
0.23770000000000002,72.2
0.2378,72.2
0.2379,72.4
0.23800000000000002,72.2
0.2381,72.2
0.23820000000000002,72.2
0.2383,72.4
0.2384,72.4
0.23850000000000002,72.2
0.2386,72.0
0.23870000000000002,72.2
0.2388,72.0
0.2389,72.2
0.23900000000000002,72.2
0.2391,72.4
0.23920000000000002,72.0
0.2393,72.2
0.2394,72.2
0.23950000000000002,72.4
0.2396,72.2
0.23970000000000002,72.4
0.2398,72.2
0.2399,72.0
0.24000000000000002,72.2
0.2401,72.2
0.24020000000000002,72.4
0.2403,72.2
0.2404,72.2
0.24050000000000002,72.4
0.2406,72.2
0.24070000000000003,72.2
0.24080000000000001,72.2
0.2409,72.2
0.24100000000000002,72.2
0.2411,72.2
0.2412,72.2
0.24130000000000001,72.2
0.2414,72.2
0.24150000000000002,72.4
0.2416,72.2
0.2417,72.2
0.24180000000000001,72.2
0.2419,72.2
0.24200000000000002,72.2
0.2421,72.0
0.2422,72.0
0.24230000000000002,72.2
0.2424,72.2
0.24250000000000002,72.2
0.2426,72.4
0.2427,72.0
0.24280000000000002,72.2
0.2429,72.2
0.24300000000000002,72.4
0.2431,72.0
0.2432,72.0
0.24330000000000002,72.2
0.2434,72.2
0.24350000000000002,72.0
0.2436,72.0
0.2437,72.2
0.24380000000000002,72.0
0.2439,72.0
0.24400000000000002,72.2
0.2441,72.2
0.2442,72.2
0.24430000000000002,72.2
0.2444,72.2
0.24450000000000002,72.0
0.2446,71.8
0.2447,72.0
0.24480000000000002,72.0
0.2449,72.0
0.24500000000000002,72.0
0.2451,71.8
0.2452,72.0
0.24530000000000002,72.0
0.2454,72.0
0.24550000000000002,71.8
0.2456,71.8
0.2457,72.2
0.24580000000000002,71.8
0.2459,72.0
0.24600000000000002,71.8
0.2461,71.8
0.2462,72.0
0.24630000000000002,72.0
0.2464,72.0
0.24650000000000002,72.2
0.2466,71.8
0.2467,72.0
0.24680000000000002,72.2
0.2469,72.0
0.24700000000000003,72.0
0.24710000000000001,72.0
0.2472,72.0
0.24730000000000002,72.0
0.2474,72.0
0.24750000000000003,72.0
0.24760000000000001,72.0
0.2477,71.8
0.24780000000000002,72.0
0.2479,71.8
0.248,71.8
0.24810000000000001,71.8
0.2482,72.0
0.24830000000000002,72.0
0.2484,72.0
0.2485,71.8
0.24860000000000002,72.0
0.2487,71.8
0.24880000000000002,72.0
0.2489,71.8
0.249,72.0
0.24910000000000002,72.0
0.2492,71.8
0.24930000000000002,72.0
0.2494,72.0
0.2495,72.0
0.24960000000000002,72.0
0.2497,71.8
0.24980000000000002,71.8
0.2499,72.0
0.25,72.0
0.2501,72.0
0.25020000000000003,72.0
0.2503,71.8
0.2504,72.0
0.2505,72.0
0.2506,71.8
0.25070000000000003,72.0
0.2508,71.8
0.2509,72.0
0.251,71.8
0.2511,72.0
0.25120000000000003,72.0
0.2513,72.0
0.2514,71.8
0.2515,71.8
0.2516,71.8
0.25170000000000003,72.0
0.2518,71.8
0.2519,72.0
0.252,71.8
0.2521,71.8
0.25220000000000004,71.8
0.2523,71.8
0.2524,71.8
0.2525,71.8
0.2526,72.0
0.25270000000000004,72.0
0.2528,72.0
0.2529,72.0
0.253,71.6
0.2531,72.0
0.25320000000000004,72.0
0.2533,72.0
0.2534,71.8
0.2535,71.6
0.2536,72.0
0.25370000000000004,71.8
0.2538,71.6
0.2539,72.0
0.254,72.0
0.2541,72.0
0.25420000000000004,72.0
0.2543,71.8
0.2544,71.8
0.2545,71.8
0.2546,72.0
0.25470000000000004,71.8
0.2548,71.4
0.2549,72.0
0.255,71.6
0.2551,71.8
0.25520000000000004,71.6
0.2553,72.0
0.2554,71.4
0.2555,71.8
0.2556,71.8
0.25570000000000004,71.6
0.2558,72.0
0.2559,71.4
0.256,71.4
0.2561,71.6
0.25620000000000004,71.6
0.25630000000000003,71.8
0.2564,71.8
0.2565,71.6
0.2566,71.6
0.25670000000000004,71.8
0.25680000000000003,71.6
0.2569,71.6
0.257,71.8
0.2571,71.6
0.25720000000000004,71.6
0.25730000000000003,71.6
0.2574,71.6
0.2575,71.6
0.2576,71.6
0.2577,71.6
0.25780000000000003,71.6
0.2579,71.4
0.258,71.4
0.2581,71.6
0.2582,71.6
0.25830000000000003,71.4
0.2584,71.4
0.2585,71.6
0.2586,71.4
0.2587,71.6
0.25880000000000003,71.4
0.2589,71.6
0.259,71.4
0.2591,71.6
0.2592,71.4
0.25930000000000003,71.6
0.2594,71.4
0.2595,71.6
0.2596,71.4
0.2597,71.4
0.25980000000000003,71.4
0.2599,71.4
0.26,71.6
0.2601,71.4
0.2602,71.2
0.26030000000000003,71.4
0.2604,71.6
0.2605,71.4
0.2606,71.6
0.2607,71.4
0.26080000000000003,71.4
0.2609,71.4
0.261,71.6
0.2611,71.4
0.2612,71.4
0.26130000000000003,71.4
0.2614,71.4
0.2615,71.4
0.2616,71.4
0.2617,71.2
0.26180000000000003,71.6
0.2619,71.4
0.262,71.4
0.2621,71.4
0.2622,71.4
0.26230000000000003,71.4
0.2624,71.4
0.2625,71.4
0.2626,71.4
0.2627,71.4
0.26280000000000003,71.6
0.2629,71.2
0.263,71.4
0.2631,71.4
0.2632,71.2
0.26330000000000003,71.4
0.2634,71.2
0.2635,71.4
0.2636,71.2
0.2637,71.2
0.26380000000000003,71.2
0.2639,71.4
0.264,71.2
0.2641,71.4
0.2642,71.2
0.26430000000000003,71.4
0.2644,71.2
0.2645,71.4
0.2646,71.2
0.2647,71.2
0.26480000000000004,71.2
0.2649,71.0
0.265,71.2
0.2651,71.2
0.2652,71.2
0.26530000000000004,71.2
0.2654,71.2
0.2655,71.0
0.2656,71.2
0.2657,71.0
0.26580000000000004,71.0
0.2659,71.0
0.266,71.0
0.2661,71.2
0.2662,71.2
0.26630000000000004,71.0
0.2664,71.0
0.2665,71.2
0.2666,71.2
0.2667,71.0
0.26680000000000004,71.0
0.2669,71.0
0.267,71.2
0.2671,71.2
0.2672,71.2
0.26730000000000004,71.2
0.2674,71.2
0.2675,71.0
0.2676,71.2
0.2677,71.0
0.26780000000000004,71.0
0.2679,71.2
0.268,71.2
0.2681,71.2
0.2682,71.0
0.26830000000000004,70.8
0.2684,71.2
0.2685,71.0
0.2686,71.0
0.2687,70.8
0.26880000000000004,71.0
0.26890000000000003,71.0
0.269,71.0
0.2691,71.0
0.2692,71.0
0.26930000000000004,71.0
0.26940000000000003,71.0
0.2695,71.0
0.2696,70.8
0.2697,71.0
0.26980000000000004,71.0
0.26990000000000003,71.0
0.27,71.0
0.2701,71.0
0.2702,71.0
0.27030000000000004,71.0
0.27040000000000003,71.0
0.2705,71.0
0.2706,71.0
0.2707,71.0
0.27080000000000004,71.0
0.27090000000000003,71.0
0.271,71.0
0.2711,70.8
0.2712,71.0
0.2713,71.0
0.27140000000000003,70.8
0.2715,71.0
0.2716,71.0
0.2717,70.8
0.2718,70.6
0.27190000000000003,70.8
0.272,71.0
0.2721,71.0
0.2722,70.8
0.2723,71.0
0.27240000000000003,71.0
0.2725,71.0
0.2726,71.0
0.2727,71.0
0.2728,70.8
0.27290000000000003,70.8
0.273,70.8
0.2731,71.0
0.2732,70.8
0.2733,70.8
0.27340000000000003,71.0
0.2735,70.8
0.2736,70.8
0.2737,70.8
0.2738,70.8
0.27390000000000003,71.0
0.274,70.8
0.2741,70.8
0.2742,70.6
0.2743,70.6
0.27440000000000003,70.8
0.2745,70.6
0.2746,70.4
0.2747,70.6
0.2748,70.8
0.27490000000000003,70.6
0.275,70.6
0.2751,70.8
0.2752,70.6
0.2753,70.6
0.27540000000000003,70.8
0.2755,70.8
0.2756,70.8
0.2757,70.6
0.2758,70.6
0.27590000000000003,70.6
0.276,70.8
0.2761,70.8
0.2762,70.6
0.2763,70.6
0.27640000000000003,70.6
0.2765,70.6
0.2766,70.6
0.2767,70.6
0.2768,70.8
0.27690000000000003,70.6
0.277,70.6
0.2771,70.6
0.2772,70.6
0.2773,70.6
0.27740000000000004,70.4
0.2775,70.8
0.2776,70.6
0.2777,70.4
0.2778,70.4
0.27790000000000004,70.8
0.278,70.8
0.2781,70.6
0.2782,70.6
0.2783,70.6
0.27840000000000004,70.4
0.2785,70.6
0.2786,70.4
0.2787,70.6
0.2788,70.4
0.27890000000000004,70.6
0.279,70.6
0.2791,70.6
0.2792,70.6
0.2793,70.4
0.27940000000000004,70.4
0.2795,70.4
0.2796,70.6
0.2797,70.6
0.2798,70.4
0.27990000000000004,70.6
0.28,70.2
0.2801,70.6
0.2802,70.4
0.2803,70.4
0.28040000000000004,70.6
0.2805,70.4
0.2806,70.6
0.2807,70.6
0.2808,70.4
0.28090000000000004,70.6
0.281,70.4
0.2811,70.4
0.2812,70.6
0.2813,70.4
0.28140000000000004,70.4
0.28150000000000003,70.4
0.2816,70.4
0.2817,70.2
0.2818,70.4
0.28190000000000004,70.4
0.28200000000000003,70.4
0.2821,70.6
0.2822,70.4
0.2823,70.4
0.28240000000000004,70.2
0.28250000000000003,70.4
0.2826,70.4
0.2827,70.4
0.2828,70.4
0.28290000000000004,70.4
0.28300000000000003,70.4
0.2831,70.2
0.2832,70.2
0.2833,70.4
0.28340000000000004,70.2
0.28350000000000003,70.2
0.2836,70.4
0.2837,70.4
0.2838,70.4
0.28390000000000004,70.4
0.28400000000000003,70.2
0.2841,70.2
0.2842,70.2
0.2843,70.4
0.2844,70.2
0.28450000000000003,70.2
0.2846,70.4
0.2847,70.2
0.2848,70.2
0.2849,70.0
0.28500000000000003,70.2
0.2851,70.2
0.2852,70.2
0.2853,70.0
0.2854,70.2
0.28550000000000003,70.0
0.2856,70.2
0.2857,70.0
0.2858,70.2
0.2859,70.4
0.28600000000000003,70.4
0.2861,70.2
0.2862,70.2
0.2863,70.4
0.2864,70.2
0.28650000000000003,70.0
0.2866,70.2
0.2867,70.2
0.2868,70.0
0.2869,70.0
0.28700000000000003,70.0
0.2871,70.4
0.2872,70.0
0.2873,69.8
0.2874,70.0
0.28750000000000003,69.8
0.2876,70.0
0.2877,69.8
0.2878,69.8
0.2879,70.0
0.28800000000000003,69.8
0.2881,70.0
0.2882,70.2
0.2883,70.0
0.2884,70.0
0.28850000000000003,70.0
0.2886,70.0
0.2887,69.8
0.2888,70.0
0.2889,69.8
0.28900000000000003,69.8
0.2891,70.0
0.2892,70.0
0.2893,69.8
0.2894,69.8
0.28950000000000004,70.0
0.2896,70.0
0.2897,70.0
0.2898,70.0
0.2899,69.6
0.29000000000000004,70.0
0.2901,69.8
0.2902,70.0
0.2903,69.8
0.2904,69.8
0.29050000000000004,69.8
0.2906,70.0
0.2907,69.8
0.2908,70.0
0.2909,69.8
0.29100000000000004,69.8
0.2911,70.0
0.2912,70.0
0.2913,70.0
0.2914,69.8
0.29150000000000004,69.8
0.2916,69.6
0.2917,69.6
0.2918,69.6
0.2919,69.6
0.29200000000000004,69.8
0.2921,70.0
0.2922,69.8
0.2923,69.8
0.2924,69.8
0.29250000000000004,69.6
0.2926,69.6
0.2927,69.8
0.2928,69.8
0.2929,69.6
0.29300000000000004,69.6
0.2931,69.6
0.2932,69.4
0.2933,69.6
0.2934,69.8
0.29350000000000004,69.8
0.2936,69.8
0.2937,69.8
0.2938,69.6
0.2939,69.6
0.29400000000000004,69.6
0.29410000000000003,69.6
0.2942,69.8
0.2943,69.4
0.2944,69.4
0.29450000000000004,69.8
0.29460000000000003,69.4
0.2947,69.4
0.2948,69.6
0.2949,69.6
0.29500000000000004,69.6
0.29510000000000003,69.4
0.2952,69.6
0.2953,69.6
0.2954,69.6
0.29550000000000004,69.2
0.29560000000000003,69.4
0.2957,69.4
0.2958,69.4
0.2959,69.4
0.29600000000000004,69.6
0.29610000000000003,69.4
0.2962,69.4
0.2963,69.8
0.2964,69.4
0.29650000000000004,69.4
0.29660000000000003,69.4
0.2967,69.4
0.2968,69.2
0.2969,69.4
0.29700000000000004,69.4
0.29710000000000003,69.4
0.2972,69.4
0.2973,69.2
0.2974,69.4
0.2975,69.2
0.29760000000000003,69.4
0.2977,69.2
0.2978,69.4
0.2979,69.2
0.298,69.4
0.29810000000000003,69.2
0.2982,69.2
0.2983,69.4
0.2984,69.2
0.2985,69.2
0.29860000000000003,69.4
0.2987,69.2
0.2988,69.2
0.2989,69.2
0.299,69.2
0.29910000000000003,69.2
0.2992,69.2
0.2993,69.2
0.2994,69.2
0.2995,69.2
0.29960000000000003,69.2
0.2997,69.2
0.2998,69.2
0.2999,69.2
0.3,69.2
0.30010000000000003,69.2
0.3002,69.2
0.3003,69.2
0.3004,69.2
0.3005,69.0
0.30060000000000003,69.2
0.3007,69.2
0.3008,69.0
0.3009,69.0
0.301,69.2
0.30110000000000003,69.2
0.3012,69.2
0.3013,69.0
0.3014,69.2
0.3015,69.2
0.30160000000000003,69.0
0.3017,69.0
0.3018,68.8
0.3019,69.0
0.302,69.0
0.30210000000000004,69.0
0.3022,69.0
0.3023,69.0
0.3024,69.2
0.3025,69.0
0.30260000000000004,69.0
0.3027,69.0
0.3028,69.0
0.3029,68.8
0.303,69.0
0.30310000000000004,69.0
0.3032,69.0
0.3033,69.0
0.3034,69.0
0.3035,69.2
0.30360000000000004,69.0
0.3037,69.0
0.3038,69.0
0.3039,69.0
0.304,68.8
0.30410000000000004,68.8
0.3042,68.8
0.3043,68.8
0.3044,69.0
0.3045,69.0
0.30460000000000004,68.8
0.3047,68.8
0.3048,68.8
0.3049,68.8
0.305,68.8
0.30510000000000004,68.8
0.3052,68.8
0.3053,68.8
0.3054,68.8
0.3055,69.0
0.30560000000000004,69.0
0.3057,68.8
0.3058,68.8
0.3059,68.8
0.306,68.6
0.30610000000000004,68.8
0.3062,68.8
0.3063,68.8
0.3064,68.8
0.3065,68.8
0.30660000000000004,68.6
0.30670000000000003,68.4
0.3068,68.8
0.3069,68.6
0.307,68.8
0.30710000000000004,68.8
0.30720000000000003,68.8
0.3073,68.8
0.3074,68.6
0.3075,68.6
0.30760000000000004,68.8
0.30770000000000003,68.8
0.3078,68.8
0.3079,68.6
0.308,68.8
0.30810000000000004,68.6
0.30820000000000003,68.8
0.3083,68.8
0.3084,68.8
0.3085,68.6
0.30860000000000004,68.8
0.30870000000000003,68.6
0.3088,68.6
0.3089,68.6
0.309,68.8
0.30910000000000004,68.6
0.30920000000000003,68.6
0.3093,68.8
0.3094,68.6
0.3095,68.8
0.30960000000000004,68.4
0.30970000000000003,68.2
0.3098,68.4
0.3099,68.6
0.31,68.6
0.31010000000000004,68.6
0.31020000000000003,68.6
0.3103,68.6
0.3104,68.4
0.3105,68.4
0.3106,68.6
0.31070000000000003,68.4
0.3108,68.6
0.3109,68.4
0.311,68.4
0.3111,68.4
0.31120000000000003,68.6
0.3113,68.4
0.3114,68.2
0.3115,68.2
0.3116,68.4
0.31170000000000003,68.2
0.3118,68.4
0.3119,68.4
0.312,68.4
0.3121,68.4
0.31220000000000003,68.4
0.3123,68.4
0.3124,68.4
0.3125,68.4
0.3126,68.2
0.31270000000000003,68.2
0.3128,68.2
0.3129,68.4
0.313,68.4
0.3131,68.2
0.31320000000000003,68.4
0.3133,68.2
0.3134,68.2
0.3135,68.4
0.3136,68.4
0.31370000000000003,68.4
0.3138,68.2
0.3139,68.2
0.314,68.2
0.3141,68.4
0.31420000000000003,68.4
0.3143,68.4
0.3144,68.2
0.3145,68.2
0.3146,68.2
0.31470000000000004,68.2
0.3148,68.2
0.3149,68.2
0.315,68.2
0.3151,68.2
0.31520000000000004,68.2
0.3153,68.2
0.3154,68.2
0.3155,68.2
0.3156,68.2
0.31570000000000004,68.2
0.3158,68.2
0.3159,68.0
0.316,68.0
0.3161,68.2
0.31620000000000004,68.2
0.3163,68.0
0.3164,68.2
0.3165,68.0
0.3166,68.0
0.31670000000000004,68.2
0.3168,68.2
0.3169,68.0
0.317,68.0
0.3171,68.0
0.31720000000000004,68.0
0.3173,68.0
0.3174,67.8
0.3175,67.8
0.3176,68.0
0.31770000000000004,68.0
0.3178,68.0
0.3179,68.0
0.318,68.0
0.3181,68.0
0.31820000000000004,68.0
0.3183,68.0
0.3184,68.0
0.3185,68.0
0.3186,68.0
0.31870000000000004,67.8
0.31880000000000003,68.0
0.3189,68.0
0.319,68.0
0.3191,67.8
0.31920000000000004,67.8
0.31930000000000003,68.0
0.3194,67.8
0.3195,68.0
0.3196,67.8
0.31970000000000004,67.8
0.31980000000000003,67.8
0.3199,67.8
0.32,67.8
0.3201,68.0
0.32020000000000004,67.6
0.32030000000000003,67.8
0.3204,67.8
0.3205,68.0
0.3206,67.8
0.32070000000000004,67.6
0.32080000000000003,68.0
0.3209,67.8
0.321,68.0
0.3211,67.8
0.32120000000000004,67.8
0.32130000000000003,67.6
0.3214,67.8
0.3215,68.0
0.3216,67.6
0.32170000000000004,67.6
0.32180000000000003,67.6
0.3219,67.6
0.322,67.8
0.3221,67.6
0.32220000000000004,67.6
0.32230000000000003,67.6
0.3224,67.8
0.3225,67.6
0.3226,67.6
0.32270000000000004,67.6
0.32280000000000003,67.6
0.3229,67.8
0.323,67.6
0.3231,67.6
0.32320000000000004,67.6
0.32330000000000003,67.6
0.3234,67.6
0.3235,67.6
0.3236,67.6
0.32370000000000004,67.6
0.32380000000000003,67.6
0.3239,67.6
0.324,67.6
0.3241,67.6
0.3242,67.8
0.32430000000000003,67.8
0.3244,67.6
0.3245,67.4
0.3246,67.6
0.3247,67.4
0.32480000000000003,67.6
0.3249,67.4
0.325,67.6
0.3251,67.6
0.3252,67.4
0.32530000000000003,67.4
0.3254,67.6
0.3255,67.6
0.3256,67.6
0.3257,67.6
0.32580000000000003,67.4
0.3259,67.4
0.326,67.4
0.3261,67.2
0.3262,67.4
0.32630000000000003,67.4
0.3264,67.2
0.3265,67.4
0.3266,67.4
0.3267,67.6
0.32680000000000003,67.4
0.3269,67.4
0.327,67.4
0.3271,67.4
0.3272,67.6
0.32730000000000004,67.4
0.3274,67.6
0.3275,67.4
0.3276,67.6
0.3277,67.4
0.32780000000000004,67.2
0.3279,67.2
0.328,67.4
0.3281,67.2
0.3282,67.4
0.32830000000000004,67.4
0.3284,67.4
0.3285,67.4
0.3286,67.4
0.3287,67.2
0.32880000000000004,67.2
0.3289,67.4
0.329,67.2
0.3291,67.4
0.3292,67.2
0.32930000000000004,67.2
0.3294,67.4
0.3295,67.2
0.3296,67.2
0.3297,67.4
0.32980000000000004,67.2
0.3299,67.2
0.33,67.2
0.3301,67.4
0.3302,67.4
0.33030000000000004,67.2
0.3304,67.2
0.3305,67.2
0.3306,67.2
0.3307,67.2
0.33080000000000004,67.2
0.3309,67.2
0.331,67.2
0.3311,67.0
0.3312,67.2
0.33130000000000004,67.0
0.33140000000000003,67.0
0.3315,67.0
0.3316,67.0
0.3317,67.2
0.33180000000000004,67.0
0.33190000000000003,67.2
0.332,67.0
0.3321,67.0
0.3322,67.2
0.33230000000000004,67.0
0.33240000000000003,67.2
0.3325,67.0
0.3326,67.0
0.3327,66.8
0.33280000000000004,67.0
0.33290000000000003,67.2
0.333,67.0
0.3331,67.2
0.3332,67.0
0.33330000000000004,67.2
0.33340000000000003,67.0
0.3335,67.0
0.3336,67.0
0.3337,66.8
0.33380000000000004,67.0
0.33390000000000003,67.0
0.334,66.8
0.3341,67.0
0.3342,66.8
0.33430000000000004,66.8
0.33440000000000003,67.0
0.3345,66.8
0.3346,66.8
0.3347,67.0
0.33480000000000004,66.8
0.33490000000000003,67.0
0.335,66.8
0.3351,66.8
0.3352,67.0
0.33530000000000004,67.0
0.33540000000000003,66.8
0.3355,66.8
0.3356,66.8
0.3357,66.8
0.33580000000000004,66.6
0.33590000000000003,67.0
0.336,66.8
0.3361,66.8
0.3362,67.0
0.33630000000000004,66.8
0.33640000000000003,66.8
0.3365,67.0
0.3366,66.8
0.3367,66.8
0.33680000000000004,66.8
0.33690000000000003,66.8
0.337,66.8
0.3371,66.6
0.3372,67.0
0.3373,66.8
0.33740000000000003,66.8
0.3375,66.6
0.3376,66.6
0.3377,66.8
0.3378,66.8
0.33790000000000003,66.6
0.338,66.6
0.3381,66.8
0.3382,66.6
0.3383,66.8
0.33840000000000003,66.6
0.3385,66.8
0.3386,66.6
0.3387,66.6
0.3388,66.4
0.33890000000000003,66.6
0.339,66.8
0.3391,66.4
0.3392,66.6
0.3393,66.6
0.33940000000000003,66.4
0.3395,66.6
0.3396,66.6
0.3397,66.4
0.3398,66.4
0.33990000000000004,66.6
0.34,66.6
0.3401,66.6
0.3402,66.6
0.3403,66.6
0.34040000000000004,66.6
0.3405,66.6
0.3406,66.8
0.3407,66.4
0.3408,66.6
0.34090000000000004,66.4
0.341,66.4
0.3411,66.4
0.3412,66.4
0.3413,66.4
0.34140000000000004,66.4
0.3415,66.4
0.3416,66.4
0.3417,66.4
0.3418,66.4
0.34190000000000004,66.4
0.342,66.4
0.3421,66.4
0.3422,66.4
0.3423,66.6
0.34240000000000004,66.4
0.3425,66.4
0.3426,66.4
0.3427,66.4
0.3428,66.2
0.34290000000000004,66.6
0.343,66.4
0.3431,66.4
0.3432,66.4
0.3433,66.4
0.34340000000000004,66.4
0.3435,66.4
0.3436,66.4
0.3437,66.4
0.3438,66.2
0.34390000000000004,66.2
0.34400000000000003,66.2
0.3441,66.4
0.3442,66.2
0.3443,66.2
0.34440000000000004,66.4
0.34450000000000003,66.2
0.3446,66.2
0.3447,66.2
0.3448,66.0
0.34490000000000004,66.2
0.34500000000000003,66.2
0.3451,66.2
0.3452,66.2
0.3453,66.4
0.34540000000000004,66.4
0.34550000000000003,66.4
0.3456,66.0
0.3457,66.2
0.3458,66.4
0.34590000000000004,66.2
0.34600000000000003,66.4
0.3461,66.2
0.3462,66.2
0.3463,66.2
0.34640000000000004,66.2
0.34650000000000003,66.2
0.3466,66.2
0.3467,66.4
0.3468,66.2
0.34690000000000004,66.0
0.34700000000000003,66.2
0.3471,66.0
0.3472,66.2
0.3473,66.2
0.34740000000000004,66.0
0.34750000000000003,66.0
0.3476,66.2
0.3477,66.2
0.3478,66.2
0.34790000000000004,66.0
0.34800000000000003,66.4
0.3481,66.2
0.3482,66.2
0.3483,66.0
0.34840000000000004,66.2
0.34850000000000003,66.0
0.3486,66.0
0.3487,66.0
0.3488,66.0
0.34890000000000004,66.2
0.34900000000000003,66.0
0.3491,66.0
0.3492,66.0
0.3493,65.8
0.34940000000000004,66.0
0.34950000000000003,66.0
0.3496,66.0
0.3497,66.0
0.3498,66.0
0.34990000000000004,66.0
0.35000000000000003,66.0
0.3501,66.2
0.3502,66.2
0.3503,66.0
0.3504,66.0
0.35050000000000003,66.0
0.3506,66.0
0.3507,66.0
0.3508,66.0
0.3509,66.0
0.35100000000000003,65.8
0.3511,66.0
0.3512,66.0
0.3513,66.0
0.3514,66.0
0.35150000000000003,66.0
0.3516,65.8
0.3517,66.0
0.3518,66.0
0.3519,66.0
0.35200000000000004,66.0
0.3521,65.8
0.3522,66.0
0.3523,65.8
0.3524,66.0
0.35250000000000004,65.8
0.3526,66.0
0.3527,65.6
0.3528,65.8
0.3529,66.0
0.35300000000000004,66.0
0.3531,66.0
0.3532,66.0
0.3533,65.8
0.3534,65.6
0.35350000000000004,65.8
0.3536,66.0
0.3537,65.6
0.3538,65.6
0.3539,65.8
0.35400000000000004,65.8
0.3541,65.6
0.3542,65.8
0.3543,65.8
0.3544,65.4
0.35450000000000004,65.6
0.3546,65.6
0.3547,65.8
0.3548,65.8
0.3549,65.6
0.35500000000000004,65.6
0.3551,65.6
0.3552,65.8
0.3553,65.8
0.3554,65.8
0.35550000000000004,65.8
0.3556,65.8
0.3557,65.8
0.3558,65.6
0.3559,65.8
0.35600000000000004,65.8
0.3561,65.6
0.3562,65.8
0.3563,65.8
0.3564,65.8
0.35650000000000004,65.8
0.35660000000000003,65.6
0.3567,65.8
0.3568,65.6
0.3569,65.6
0.35700000000000004,65.6
0.35710000000000003,65.4
0.3572,65.8
0.3573,65.4
0.3574,65.4
0.35750000000000004,65.8
0.35760000000000003,65.6
0.3577,65.8
0.3578,65.4
0.3579,65.8
0.35800000000000004,65.6
0.35810000000000003,65.6
0.3582,65.8
0.3583,65.8
0.3584,65.6
0.35850000000000004,65.6
0.35860000000000003,65.4
0.3587,65.4
0.3588,65.4
0.3589,65.6
0.35900000000000004,65.6
0.35910000000000003,65.8
0.3592,65.2
0.3593,65.6
0.3594,65.6
0.35950000000000004,65.4
0.35960000000000003,65.6
0.3597,65.4
0.3598,65.4
0.3599,65.6
0.36000000000000004,65.4
0.36010000000000003,65.6
0.3602,65.4
0.3603,65.4
0.3604,65.4
0.36050000000000004,65.4
0.36060000000000003,65.4
0.3607,65.2
0.3608,65.8
0.3609,65.2
0.36100000000000004,65.4
0.36110000000000003,65.2
0.3612,65.4
0.3613,65.4
0.3614,65.4
0.36150000000000004,65.6
0.36160000000000003,65.6
0.3617,65.4
0.3618,65.4
0.3619,65.4
0.36200000000000004,65.4
0.36210000000000003,65.4
0.3622,65.4
0.3623,65.2
0.3624,65.4
0.36250000000000004,65.4
0.36260000000000003,65.2
0.3627,65.4
0.3628,65.4
0.3629,65.6
0.36300000000000004,65.4
0.36310000000000003,65.4
0.3632,65.2
0.3633,65.2
0.3634,65.2
0.3635,65.4
0.36360000000000003,65.2
0.3637,65.2
0.3638,65.4
0.3639,65.2
0.364,65.2
0.36410000000000003,65.4
0.3642,65.4
0.3643,65.0
0.3644,65.2
0.3645,65.2
0.36460000000000004,65.0
0.3647,65.4
0.3648,65.0
0.3649,65.0
0.365,65.2
0.36510000000000004,65.2
0.3652,65.2
0.3653,65.2
0.3654,65.2
0.3655,65.2
0.36560000000000004,65.2
0.3657,65.2
0.3658,65.2
0.3659,65.4
0.366,65.2
0.36610000000000004,65.2
0.3662,65.4
0.3663,65.2
0.3664,65.2
0.3665,65.2
0.36660000000000004,65.2
0.3667,65.0
0.3668,65.2
0.3669,65.0
0.367,65.2
0.36710000000000004,65.2
0.3672,64.8
0.3673,65.0
0.3674,65.2
0.3675,65.0
0.36760000000000004,65.2
0.3677,65.0
0.3678,65.2
0.3679,65.0
0.368,65.0
0.36810000000000004,65.2
0.3682,65.0
0.3683,65.0
0.3684,65.0
0.3685,65.0
0.36860000000000004,65.2
0.3687,65.0
0.3688,65.2
0.3689,65.0
0.369,65.0
0.36910000000000004,64.8
0.36920000000000003,65.0
0.3693,65.0
0.3694,64.8
0.3695,65.0
0.36960000000000004,64.6
0.36970000000000003,65.0
0.3698,65.0
0.3699,65.0
0.37,65.2
0.37010000000000004,65.0
0.37020000000000003,65.0
0.3703,65.0
0.3704,65.0
0.3705,65.0
0.37060000000000004,64.6
0.37070000000000003,65.0
0.3708,64.8
0.3709,64.8
0.371,64.8
0.37110000000000004,65.0
0.37120000000000003,65.0
0.3713,64.8
0.3714,65.0
0.3715,65.0
0.37160000000000004,65.0
0.37170000000000003,65.0
0.3718,64.8
0.3719,64.8
0.372,64.8
0.37210000000000004,64.8
0.37220000000000003,64.8
0.3723,64.6
0.3724,64.8
0.3725,64.8
0.37260000000000004,64.8
0.37270000000000003,65.0
0.3728,64.8
0.3729,65.0
0.373,65.0
0.37310000000000004,64.8
0.37320000000000003,64.6
0.3733,64.6
0.3734,64.8
0.3735,64.6
0.37360000000000004,64.8
0.37370000000000003,64.8
0.3738,64.6
0.3739,64.8
0.374,64.8
0.37410000000000004,64.8
0.37420000000000003,64.6
0.3743,64.6
0.3744,64.6
0.3745,64.8
0.37460000000000004,64.8
0.37470000000000003,64.6
0.3748,64.6
0.3749,64.6
0.375,64.6
0.37510000000000004,64.8
0.37520000000000003,64.8
0.3753,64.6
0.3754,64.8
0.3755,64.8
0.37560000000000004,64.8
0.37570000000000003,64.8
0.3758,64.8
0.3759,64.6
0.376,64.8
0.37610000000000005,64.6
0.37620000000000003,64.8
0.3763,64.8
0.3764,64.4
0.3765,64.8
0.3766,64.6
0.37670000000000003,64.6
0.3768,64.6
0.3769,64.8
0.377,64.8
0.3771,64.6
0.37720000000000004,64.6
0.3773,64.6
0.3774,64.6
0.3775,64.6
0.3776,64.6
0.37770000000000004,64.6
0.3778,64.6
0.3779,64.6
0.378,64.8
0.3781,64.6
0.37820000000000004,64.6
0.3783,64.6
0.3784,64.6
0.3785,64.4
0.3786,64.8
0.37870000000000004,64.6
0.3788,64.6
0.3789,64.6
0.379,64.4
0.3791,64.6
0.37920000000000004,64.6
0.3793,64.6
0.3794,64.6
0.3795,64.4
0.3796,64.6
0.37970000000000004,64.6
0.3798,64.6
0.3799,64.6
0.38,64.6
0.3801,64.6
0.38020000000000004,64.6
0.3803,64.6
0.3804,64.6
0.3805,64.4
0.3806,64.4
0.38070000000000004,64.4
0.3808,64.4
0.3809,64.4
0.381,64.4
0.3811,64.4
0.38120000000000004,64.6
0.38130000000000003,64.6
0.3814,64.4
0.3815,64.4
0.3816,64.6
0.38170000000000004,64.6
0.38180000000000003,64.6
0.3819,64.6
0.382,64.4
0.3821,64.4
0.38220000000000004,64.4
0.38230000000000003,64.6
0.3824,64.2
0.3825,64.4
0.3826,64.4
0.38270000000000004,64.4
0.38280000000000003,64.6
0.3829,64.4
0.383,64.4
0.3831,64.2
0.38320000000000004,64.2
0.38330000000000003,64.4
0.3834,64.2
0.3835,64.4
0.3836,64.6
0.38370000000000004,64.4
0.38380000000000003,64.2
0.3839,64.4
0.384,64.4
0.3841,64.2
0.38420000000000004,64.2
0.38430000000000003,64.2
0.3844,64.2
0.3845,64.4
0.3846,64.2
0.38470000000000004,64.2
0.38480000000000003,64.4
0.3849,64.2
0.385,64.4
0.3851,64.4
0.38520000000000004,64.2
0.38530000000000003,64.4
0.3854,64.4
0.3855,64.2
0.3856,64.4
0.38570000000000004,64.4
0.38580000000000003,64.4
0.3859,64.4
0.386,64.4
0.3861,64.6
0.38620000000000004,64.4
0.38630000000000003,64.0
0.3864,64.4
0.3865,64.2
0.3866,64.2
0.38670000000000004,64.2
0.38680000000000003,64.2
0.3869,64.4
0.387,64.4
0.3871,64.2
0.38720000000000004,64.2
0.38730000000000003,64.4
0.3874,64.2
0.3875,64.2
0.3876,64.2
0.38770000000000004,64.0
0.38780000000000003,64.4
0.3879,64.4
0.388,64.4
0.3881,64.2
0.38820000000000005,64.2
0.38830000000000003,64.2
0.3884,64.4
0.3885,64.4
0.3886,64.2
0.38870000000000005,64.4
0.38880000000000003,64.4
0.3889,64.2
0.389,64.2
0.3891,64.2
0.38920000000000005,64.2
0.38930000000000003,64.2
0.3894,64.2
0.3895,64.2
0.3896,64.2
0.38970000000000005,64.2
0.38980000000000004,64.4
0.3899,64.2
0.39,64.4
0.3901,64.4
0.3902,64.4
0.39030000000000004,64.2
0.3904,64.2
0.3905,64.2
0.3906,64.0
0.3907,64.2
0.39080000000000004,64.0
0.3909,64.2
0.391,64.2
0.3911,64.2
0.3912,64.4
0.39130000000000004,64.2
0.3914,64.4
0.3915,64.2
0.3916,64.0
0.3917,64.2
0.39180000000000004,64.2
0.3919,64.2
0.392,64.0
0.3921,64.0
0.3922,64.2
0.39230000000000004,64.0
0.3924,64.0
0.3925,64.2
0.3926,64.2
0.3927,64.2
0.39280000000000004,64.2
0.3929,64.0
0.393,64.0
0.3931,64.2
0.3932,64.2
0.39330000000000004,64.2
0.3934,64.0
0.3935,64.2
0.3936,64.0
0.3937,64.2
0.39380000000000004,64.2
0.39390000000000003,64.2
0.394,64.0
0.3941,64.0
0.3942,64.0
0.39430000000000004,64.0
0.39440000000000003,64.2
0.3945,64.0
0.3946,64.0
0.3947,64.0
0.39480000000000004,64.2
0.39490000000000003,64.2
0.395,64.2
0.3951,64.0
0.3952,64.2
0.39530000000000004,64.2
0.39540000000000003,64.0
0.3955,64.2
0.3956,64.2
0.3957,64.0
0.39580000000000004,64.2
0.39590000000000003,64.2
0.396,64.2
0.3961,64.2
0.3962,64.0
0.39630000000000004,64.2
0.39640000000000003,64.0
0.3965,64.0
0.3966,64.0
0.3967,64.2
0.39680000000000004,64.2
0.39690000000000003,64.0
0.397,64.0
0.3971,64.2
0.3972,64.0
0.39730000000000004,64.0
0.39740000000000003,64.0
0.3975,64.2
0.3976,64.0
0.3977,64.0
0.39780000000000004,64.2
0.39790000000000003,64.0
0.398,64.0
0.3981,64.2
0.3982,64.0
0.39830000000000004,64.0
0.39840000000000003,64.0
0.3985,64.0
0.3986,64.2
0.3987,64.2
0.39880000000000004,64.0
0.39890000000000003,64.2
0.399,64.2
0.3991,64.0
0.3992,64.2
0.39930000000000004,64.0
0.39940000000000003,64.2
0.3995,64.2
0.3996,64.2
0.3997,64.0
0.39980000000000004,63.8
0.39990000000000003,64.2
0.4,64.0
0.4001,64.2
0.4002,64.0
0.40030000000000004,64.0
0.40040000000000003,63.8
0.4005,64.0
0.4006,64.0
0.4007,63.8
0.40080000000000005,63.8
0.40090000000000003,64.2
0.401,64.2
0.4011,64.2
0.4012,64.0
0.40130000000000005,64.2
0.40140000000000003,64.2
0.4015,64.0
0.4016,64.2
0.4017,64.0
0.40180000000000005,64.0
0.40190000000000003,64.0
0.402,64.0
0.4021,64.2
0.4022,64.0
0.40230000000000005,64.0
0.40240000000000004,64.2
0.4025,64.2
0.4026,64.2
0.4027,64.2
0.40280000000000005,64.0
0.40290000000000004,63.8
0.403,63.8
0.4031,64.2
0.4032,64.0
0.4033,63.8
0.40340000000000004,64.2
0.4035,63.8
0.4036,64.0
0.4037,63.6
0.4038,63.8
0.40390000000000004,63.8
0.404,64.0
0.4041,64.0
0.4042,63.8
0.4043,64.2
0.40440000000000004,64.0
0.4045,64.0
0.4046,63.8
0.4047,64.0
0.4048,64.0
0.40490000000000004,64.0
0.405,64.0
0.4051,64.0
0.4052,64.2
0.4053,63.8
0.40540000000000004,64.0
0.4055,64.0
0.4056,63.8
0.4057,64.0
0.4058,64.0
0.40590000000000004,64.0
0.406,64.0
0.4061,64.0
0.4062,64.0
0.4063,64.0
0.40640000000000004,63.8
0.40650000000000003,64.0
0.4066,64.0
0.4067,64.0
0.4068,64.0
0.40690000000000004,64.0
0.40700000000000003,64.2
0.4071,64.0
0.4072,64.0
0.4073,64.0
0.40740000000000004,64.2
0.40750000000000003,63.8
0.4076,63.8
0.4077,63.8
0.4078,64.0
0.40790000000000004,63.6
0.40800000000000003,64.0
0.4081,63.8
0.4082,64.2
0.4083,63.8
0.40840000000000004,64.0
0.40850000000000003,64.0
0.4086,64.0
0.4087,63.8
0.4088,63.8
0.40890000000000004,64.2
0.40900000000000003,63.8
0.4091,64.2
0.4092,63.8
0.4093,64.0
0.40940000000000004,64.0
0.40950000000000003,63.8
0.4096,64.0
0.4097,64.2
0.4098,64.0
0.40990000000000004,64.2
0.41000000000000003,64.2
0.4101,64.0
0.4102,64.0
0.4103,64.0
0.41040000000000004,63.8
0.41050000000000003,63.8
0.4106,63.8
0.4107,63.8
0.4108,64.0
0.41090000000000004,63.8
0.41100000000000003,64.0
0.4111,64.0
0.4112,64.0
0.4113,64.2
0.41140000000000004,63.8
0.41150000000000003,64.0
0.4116,64.0
0.4117,64.0
0.4118,63.8
0.41190000000000004,63.6
0.41200000000000003,64.0
0.4121,63.8
0.4122,63.8
0.4123,64.0
0.41240000000000004,64.2
0.41250000000000003,64.0
0.4126,64.0
0.4127,63.6
0.4128,63.8
0.41290000000000004,64.0
0.41300000000000003,64.0
0.4131,63.8
0.4132,63.6
0.4133,64.0
0.41340000000000005,63.8
0.41350000000000003,63.8
0.4136,63.8
0.4137,64.0
0.4138,63.6
0.41390000000000005,63.8
0.41400000000000003,63.8
0.4141,64.0
0.4142,64.0
0.4143,63.6
0.41440000000000005,63.6
0.41450000000000004,64.0
0.4146,64.2
0.4147,64.0
0.4148,64.2
0.41490000000000005,63.8
0.41500000000000004,63.8
0.4151,63.8
0.4152,64.0
0.4153,64.2
0.41540000000000005,63.8
0.41550000000000004,63.8
0.4156,63.8
0.4157,64.0
0.4158,64.0
0.41590000000000005,64.0
0.41600000000000004,63.8
0.4161,64.0
0.4162,63.8
0.4163,64.0
0.4164,63.8
0.41650000000000004,63.8
0.4166,63.8
0.4167,63.8
0.4168,63.8
0.4169,64.0
0.41700000000000004,63.8
0.4171,64.0
0.4172,63.8
0.4173,64.0
0.4174,64.0
0.41750000000000004,63.8
0.4176,64.0
0.4177,64.0
0.4178,64.0
0.4179,63.8
0.41800000000000004,63.8
0.4181,64.0
0.4182,64.0
0.4183,64.0
0.4184,63.8
0.41850000000000004,64.0
0.4186,64.0
0.4187,64.0
0.4188,64.0
0.4189,63.8
0.41900000000000004,63.8
0.41910000000000003,63.8
0.4192,64.0
0.4193,63.8
0.4194,64.0
0.41950000000000004,63.8
0.41960000000000003,63.8
0.4197,64.2
0.4198,64.0
0.4199,64.0
0.42000000000000004,64.0
0.42010000000000003,64.0
0.4202,64.0
0.4203,63.8
0.4204,63.8
0.42050000000000004,63.8
0.42060000000000003,64.0
0.4207,64.2
0.4208,63.8
0.4209,64.0
0.42100000000000004,64.0
0.42110000000000003,64.0
0.4212,64.0
0.4213,63.6
0.4214,64.2
0.42150000000000004,64.0
0.42160000000000003,64.0
0.4217,64.0
0.4218,63.8
0.4219,64.0
0.42200000000000004,63.8
0.42210000000000003,64.0
0.4222,64.2
0.4223,64.0
0.4224,63.8
0.42250000000000004,64.0
0.42260000000000003,63.8
0.4227,63.8
0.4228,63.8
0.4229,64.2
0.42300000000000004,64.0
0.42310000000000003,64.0
0.4232,64.2
0.4233,63.8
0.4234,63.6
0.42350000000000004,63.8
0.42360000000000003,64.0
0.4237,63.8
0.4238,64.0
0.4239,64.0
0.42400000000000004,63.8
0.42410000000000003,64.0
0.4242,63.8
0.4243,63.8
0.4244,64.0
0.42450000000000004,64.0
0.42460000000000003,64.0
0.4247,64.0
0.4248,63.8
0.4249,64.0
0.42500000000000004,64.0
0.42510000000000003,64.0
0.4252,64.0
0.4253,64.0
0.4254,63.8
0.42550000000000004,64.0
0.42560000000000003,64.2
0.4257,64.2
0.4258,64.0
0.4259,63.8
0.42600000000000005,63.8
0.42610000000000003,64.0
0.4262,64.0
0.4263,64.0
0.4264,64.0
0.42650000000000005,64.0
0.42660000000000003,64.0
0.4267,63.8
0.4268,64.2
0.4269,63.8
0.42700000000000005,64.0
0.42710000000000004,63.8
0.4272,64.2
0.4273,63.8
0.4274,63.8
0.42750000000000005,64.0
0.42760000000000004,64.0
0.4277,63.8
0.4278,64.0
0.4279,63.8
0.42800000000000005,64.0
0.42810000000000004,64.0
0.4282,64.2
0.4283,64.0
0.4284,64.0
0.42850000000000005,63.8
0.42860000000000004,64.0
0.4287,64.2
0.4288,63.8
0.4289,63.8
0.42900000000000005,64.0
0.42910000000000004,64.2
0.4292,64.0
0.4293,64.2
0.4294,64.0
0.4295,63.8
0.42960000000000004,64.0
0.4297,63.8
0.4298,64.2
0.4299,64.0
0.43,64.0
0.43010000000000004,64.0
0.4302,64.0
0.4303,63.8
0.4304,63.8
0.4305,64.0
0.43060000000000004,64.2
0.4307,64.2
0.4308,64.0
0.4309,63.8
0.431,64.0
0.43110000000000004,64.2
0.4312,63.8
0.4313,64.0
0.4314,64.2
0.4315,64.0
0.43160000000000004,64.0
0.43170000000000003,64.0
0.4318,64.2
0.4319,64.0
0.432,63.8
0.43210000000000004,64.0
0.43220000000000003,64.2
0.4323,64.2
0.4324,64.2
0.4325,64.0
0.43260000000000004,64.0
0.43270000000000003,64.0
0.4328,64.2
0.4329,64.0
0.433,64.0
0.43310000000000004,64.2
0.43320000000000003,63.8
0.4333,64.0
0.4334,64.0
0.4335,64.0
0.43360000000000004,64.0
0.43370000000000003,64.0
0.4338,64.0
0.4339,63.8
0.434,64.2
0.43410000000000004,64.0
0.43420000000000003,64.0
0.4343,64.0
0.4344,64.2
0.4345,64.2
0.43460000000000004,64.0
0.43470000000000003,64.0
0.4348,64.0
0.4349,64.2
0.435,64.2
0.43510000000000004,64.0
0.43520000000000003,64.2
0.4353,64.0
0.4354,64.2
0.4355,64.2
0.43560000000000004,64.2
0.43570000000000003,64.2
0.4358,64.0
0.4359,64.4
0.436,64.0
0.43610000000000004,64.2
0.43620000000000003,64.0
0.4363,64.2
0.4364,64.2
0.4365,64.2
0.43660000000000004,64.2
0.43670000000000003,64.0
0.4368,64.0
0.4369,64.2
0.437,64.0
0.43710000000000004,64.2
0.43720000000000003,64.0
0.4373,64.2
0.4374,64.2
0.4375,64.2
0.43760000000000004,64.0
0.43770000000000003,64.0
0.4378,64.2
0.4379,64.0
0.438,64.2
0.43810000000000004,64.2
0.43820000000000003,64.2
0.4383,64.2
0.4384,64.0
0.4385,64.2
0.43860000000000005,64.2
0.43870000000000003,64.0
0.4388,64.2
0.4389,64.0
0.439,64.2
0.43910000000000005,64.2
0.43920000000000003,64.2
0.4393,64.2
0.4394,64.2
0.4395,64.2
0.43960000000000005,64.2
0.43970000000000004,64.2
0.4398,64.2
0.4399,64.2
0.44,64.2
0.44010000000000005,64.0
0.44020000000000004,64.2
0.4403,64.2
0.4404,64.2
0.4405,64.2
0.44060000000000005,64.2
0.44070000000000004,64.2
0.4408,64.4
0.4409,64.2
0.441,64.2
0.44110000000000005,64.2
0.44120000000000004,64.4
0.4413,64.4
0.4414,64.2
0.4415,64.2
0.44160000000000005,64.2
0.44170000000000004,64.2
0.4418,64.2
0.4419,64.2
0.442,64.2
0.44210000000000005,64.2
0.44220000000000004,64.2
0.4423,64.4
0.4424,64.2
0.4425,64.0
0.44260000000000005,64.0
0.44270000000000004,64.4
0.4428,64.2
0.4429,64.2
0.443,64.2
0.4431,64.2
0.44320000000000004,64.0
0.4433,64.2
0.4434,64.2
0.4435,64.2
0.4436,64.0
0.44370000000000004,64.2
0.44380000000000003,64.2
0.4439,64.2
0.444,64.2
0.4441,64.2
0.44420000000000004,64.2
0.44430000000000003,64.2
0.4444,64.4
0.4445,64.2
0.4446,64.2
0.44470000000000004,64.4
0.44480000000000003,64.4
0.4449,64.2
0.445,64.4
0.4451,64.2
0.44520000000000004,64.2
0.44530000000000003,64.4
0.4454,64.2
0.4455,64.2
0.4456,64.2
0.44570000000000004,64.2
0.44580000000000003,64.4
0.4459,64.2
0.446,64.2
0.4461,64.0
0.44620000000000004,64.4
0.44630000000000003,64.4
0.4464,64.2
0.4465,64.4
0.4466,64.2
0.44670000000000004,64.2
0.44680000000000003,64.2
0.4469,64.2
0.447,64.2
0.4471,64.2
0.44720000000000004,64.2
0.44730000000000003,64.4
0.4474,64.4
0.4475,64.4
0.4476,64.4
0.44770000000000004,64.4
0.44780000000000003,64.4
0.4479,64.2
0.448,64.2
0.4481,64.4
0.44820000000000004,64.2
0.44830000000000003,64.2
0.4484,64.4
0.4485,64.4
0.4486,64.2
0.44870000000000004,64.4
0.44880000000000003,64.4
0.4489,64.4
0.449,64.4
0.4491,64.4
0.44920000000000004,64.4
0.44930000000000003,64.4
0.4494,64.4
0.4495,64.4
0.4496,64.4
0.44970000000000004,64.6
0.44980000000000003,64.2
0.4499,64.4
0.45,64.2
0.4501,64.2
0.45020000000000004,64.2
0.45030000000000003,64.4
0.4504,64.4
0.4505,64.4
0.4506,64.6
0.45070000000000005,64.2
0.45080000000000003,64.2
0.4509,64.4
0.451,64.2
0.4511,64.4
0.45120000000000005,64.4
0.45130000000000003,64.4
0.4514,64.4
0.4515,64.2
0.4516,64.6
0.45170000000000005,64.4
0.45180000000000003,64.4
0.4519,64.6
0.452,64.4
0.4521,64.6
0.45220000000000005,64.6
0.45230000000000004,64.4
0.4524,64.4
0.4525,64.4
0.4526,64.4
0.45270000000000005,64.4
0.45280000000000004,64.2
0.4529,64.4
0.453,64.6
0.4531,64.4
0.45320000000000005,64.4
0.45330000000000004,64.6
0.4534,64.2
0.4535,64.4
0.4536,64.2
0.45370000000000005,64.4
0.45380000000000004,64.6
0.4539,64.4
0.454,64.4
0.4541,64.4
0.45420000000000005,64.4
0.45430000000000004,64.4
0.4544,64.4
0.4545,64.4
0.4546,64.6
0.45470000000000005,64.6
0.45480000000000004,64.4
0.4549,64.6
0.455,64.4
0.4551,64.4
0.45520000000000005,64.6
0.45530000000000004,64.6
0.4554,64.6
0.4555,64.6
0.4556,64.4
0.45570000000000005,64.6
0.45580000000000004,64.4
0.4559,64.4
0.456,64.4
0.4561,64.4
0.4562,64.4
0.45630000000000004,64.4
0.45640000000000003,64.4
0.4565,64.6
0.4566,64.4
0.4567,64.4
0.45680000000000004,64.6
0.45690000000000003,64.6
0.457,64.4
0.4571,64.6
0.4572,64.6
0.45730000000000004,64.6
0.45740000000000003,64.4
0.4575,64.6
0.4576,64.4
0.4577,64.6
0.45780000000000004,64.6
0.45790000000000003,64.6
0.458,64.6
0.4581,64.6
0.4582,64.6
0.45830000000000004,64.6
0.45840000000000003,64.6
0.4585,64.4
0.4586,64.6
0.4587,64.6
0.45880000000000004,64.6
0.45890000000000003,64.6
0.459,64.6
0.4591,64.8
0.4592,64.6
0.45930000000000004,64.6
0.45940000000000003,64.8
0.4595,64.6
0.4596,64.8
0.4597,64.6
0.45980000000000004,64.6
0.45990000000000003,64.6
0.46,64.6
0.4601,64.6
0.4602,64.6
0.46030000000000004,64.8
0.46040000000000003,64.8
0.4605,64.6
0.4606,64.6
0.4607,64.8
0.46080000000000004,64.6
0.46090000000000003,64.6
0.461,64.8
0.4611,64.6
0.4612,64.6
0.46130000000000004,64.6
0.46140000000000003,64.6
0.4615,64.6
0.4616,64.4
0.4617,64.6
0.46180000000000004,64.8
0.46190000000000003,64.8
0.462,64.6
0.4621,64.8
0.4622,64.6
0.46230000000000004,64.6
0.46240000000000003,64.6
0.4625,64.6
0.4626,64.6
0.4627,64.6
0.46280000000000004,64.6
0.46290000000000003,64.6
0.463,64.4
0.4631,64.8
0.4632,64.8
0.46330000000000005,64.6
0.46340000000000003,64.6
0.4635,64.6
0.4636,64.6
0.4637,64.8
0.46380000000000005,64.6
0.46390000000000003,64.6
0.464,64.8
0.4641,64.8
0.4642,64.8
0.46430000000000005,65.0
0.46440000000000003,64.6
0.4645,64.8
0.4646,65.0
0.4647,64.6
0.46480000000000005,64.8
0.46490000000000004,64.8
0.465,64.6
0.4651,64.8
0.4652,64.8
0.46530000000000005,64.8
0.46540000000000004,64.8
0.4655,64.8
0.4656,64.8
0.4657,64.8
0.46580000000000005,64.6
0.46590000000000004,64.6
0.466,64.8
0.4661,64.8
0.4662,64.8
0.46630000000000005,64.8
0.46640000000000004,64.8
0.4665,64.8
0.4666,65.0
0.4667,64.6
0.46680000000000005,65.0
0.46690000000000004,64.6
0.467,64.8
0.4671,64.8
0.4672,65.0
0.46730000000000005,64.8
0.46740000000000004,65.0
0.4675,64.8
0.4676,64.8
0.4677,65.0
0.46780000000000005,65.0
0.46790000000000004,64.8
0.468,65.0
0.4681,64.6
0.4682,64.8
0.46830000000000005,65.0
0.46840000000000004,64.8
0.4685,64.8
0.4686,65.0
0.4687,64.8
0.46880000000000005,65.0
0.46890000000000004,65.0
0.46900000000000003,65.0
0.4691,64.8
0.4692,64.8
0.4693,64.8
0.46940000000000004,65.0
0.46950000000000003,65.0
0.4696,64.8
0.4697,65.0
0.4698,64.8
0.46990000000000004,64.8
0.47000000000000003,64.8
0.4701,65.0
0.4702,65.0
0.4703,65.2
0.47040000000000004,65.0
0.47050000000000003,65.0
0.4706,65.0
0.4707,64.8
0.4708,65.0
0.47090000000000004,65.0
0.47100000000000003,65.2
0.4711,65.2
0.4712,65.0
0.4713,65.0
0.47140000000000004,65.2
0.47150000000000003,65.0
0.4716,65.0
0.4717,64.8
0.4718,65.0
0.47190000000000004,65.0
0.47200000000000003,65.0
0.4721,65.0
0.4722,65.0
0.4723,65.0
0.47240000000000004,65.2
0.47250000000000003,64.8
0.4726,64.8
0.4727,65.2
0.4728,65.0
0.47290000000000004,65.0
0.47300000000000003,65.0
0.4731,65.0
0.4732,64.8
0.4733,65.2
0.47340000000000004,65.0
0.47350000000000003,65.0
0.4736,65.0
0.4737,64.8
0.4738,64.8
0.47390000000000004,65.2
0.47400000000000003,65.2
0.4741,65.2
0.4742,65.2
0.4743,65.0
0.47440000000000004,65.0
0.47450000000000003,65.2
0.4746,65.2
0.4747,65.2
0.4748,65.4
0.47490000000000004,65.0
0.47500000000000003,65.2
0.4751,65.2
0.4752,65.4
0.4753,65.4
0.47540000000000004,65.2
0.47550000000000003,65.2
0.4756,65.2
0.4757,65.2
0.4758,65.0
0.47590000000000005,65.4
0.47600000000000003,65.4
0.4761,65.2
0.4762,65.0
0.4763,65.4
0.47640000000000005,65.2
0.47650000000000003,65.2
0.4766,65.2
0.4767,65.2
0.4768,65.2
0.47690000000000005,65.2
0.47700000000000004,65.2
0.4771,65.0
0.4772,65.2
0.4773,65.2
0.47740000000000005,65.2
0.47750000000000004,65.2
0.4776,65.4
0.4777,65.2
0.4778,65.6
0.47790000000000005,65.2
0.47800000000000004,65.2
0.4781,65.4
0.4782,65.4
0.4783,65.2
0.47840000000000005,65.4
0.47850000000000004,65.2
0.4786,65.4
0.4787,65.4
0.4788,65.2
0.47890000000000005,65.4
0.47900000000000004,65.2
0.4791,65.2
0.4792,65.2
0.4793,65.4
0.47940000000000005,65.4
0.47950000000000004,65.2
0.4796,65.2
0.4797,65.2
0.4798,65.2
0.47990000000000005,65.2
0.48000000000000004,65.2
0.4801,65.4
0.4802,65.4
0.4803,65.6
0.48040000000000005,65.6
0.48050000000000004,65.4
0.4806,65.4
0.4807,65.4
0.4808,65.4
0.48090000000000005,65.4
0.48100000000000004,65.4
0.4811,65.2
0.4812,65.2
0.4813,65.4
0.48140000000000005,65.2
0.48150000000000004,65.4
0.48160000000000003,65.4
0.4817,65.6
0.4818,65.6
0.48190000000000005,65.4
0.48200000000000004,65.4
0.48210000000000003,65.2
0.4822,65.4
0.4823,65.4
0.4824,65.4
0.48250000000000004,65.6
0.48260000000000003,65.6
0.4827,65.2
0.4828,65.4
0.4829,65.6
0.48300000000000004,65.6
0.48310000000000003,65.6
0.4832,65.4
0.4833,65.4
0.4834,65.6
0.48350000000000004,65.4
0.48360000000000003,65.4
0.4837,65.4
0.4838,65.4
0.4839,65.4
0.48400000000000004,65.8
0.48410000000000003,65.8
0.4842,65.4
0.4843,65.4
0.4844,65.8
0.48450000000000004,65.6
0.48460000000000003,65.6
0.4847,65.6
0.4848,65.4
0.4849,65.8
0.48500000000000004,65.8
0.48510000000000003,65.8
0.4852,65.6
0.4853,65.6
0.4854,65.8
0.48550000000000004,65.6
0.48560000000000003,65.6
0.4857,65.4
0.4858,65.8
0.4859,65.6
0.48600000000000004,65.6
0.48610000000000003,65.6
0.4862,65.8
0.4863,65.4
0.4864,65.8
0.48650000000000004,65.4
0.48660000000000003,65.8
0.4867,65.6
0.4868,65.6
0.4869,65.6
0.48700000000000004,65.8
0.48710000000000003,65.6
0.4872,65.8
0.4873,65.6
0.4874,65.6
0.48750000000000004,65.8
0.48760000000000003,65.8
0.4877,65.8
0.4878,65.8
0.4879,65.6
0.48800000000000004,66.0
0.48810000000000003,65.8
0.4882,65.6
0.4883,65.8
0.4884,65.8
0.48850000000000005,65.8
0.48860000000000003,65.8
0.4887,65.8
0.4888,65.8
0.4889,65.8
0.48900000000000005,65.8
0.48910000000000003,65.8
0.4892,65.8
0.4893,65.8
0.4894,65.8
0.48950000000000005,65.8
0.48960000000000004,65.6
0.4897,65.8
0.4898,65.6
0.4899,65.8
0.49000000000000005,65.8
0.49010000000000004,65.8
0.4902,65.8
0.4903,65.8
0.4904,66.0
0.49050000000000005,66.0
0.49060000000000004,66.0
0.4907,66.0
0.4908,66.0
0.4909,66.0
0.49100000000000005,65.8
0.49110000000000004,66.0
0.4912,66.0
0.4913,65.6
0.4914,65.8
0.49150000000000005,66.0
0.49160000000000004,66.0
0.4917,66.0
0.4918,66.0
0.4919,65.8
0.49200000000000005,65.8
0.49210000000000004,66.0
0.4922,66.0
0.4923,65.8
0.4924,65.8
0.49250000000000005,66.0
0.49260000000000004,65.8
0.4927,65.8
0.4928,65.8
0.4929,66.2
0.49300000000000005,65.8
0.49310000000000004,65.6
0.4932,66.0
0.4933,66.0
0.4934,65.8
0.49350000000000005,65.8
0.49360000000000004,65.8
0.4937,66.0
0.4938,66.0
0.4939,66.0
0.49400000000000005,66.2
0.49410000000000004,66.2
0.49420000000000003,66.2
0.4943,66.0
0.4944,66.0
0.49450000000000005,66.0
0.49460000000000004,66.0
0.49470000000000003,66.0
0.4948,66.0
0.4949,66.0
0.49500000000000005,66.2
0.49510000000000004,66.2
0.49520000000000003,66.0
0.4953,66.2
0.4954,66.2
0.4955,66.0
0.49560000000000004,66.0
0.49570000000000003,66.0
0.4958,66.2
0.4959,66.0
0.496,66.0
0.49610000000000004,66.2
0.49620000000000003,66.0
0.4963,66.4
0.4964,66.2
0.4965,66.2
0.49660000000000004,66.2
0.49670000000000003,66.0
0.4968,66.0
0.4969,66.4
0.497,66.0
0.49710000000000004,66.2
0.49720000000000003,66.0
0.4973,66.2
0.4974,66.2
0.4975,66.2
0.49760000000000004,66.2
0.49770000000000003,66.2
0.4978,66.2
0.4979,66.2
0.498,66.2
0.49810000000000004,66.2
0.49820000000000003,66.2
0.4983,66.2
0.4984,66.2
0.4985,66.4
0.49860000000000004,66.2
0.49870000000000003,66.4
0.4988,66.4
0.4989,66.4
0.499,66.4
0.49910000000000004,66.4
0.49920000000000003,66.2
0.4993,66.4
0.4994,66.2
0.4995,66.2
0.49960000000000004,66.2
0.49970000000000003,66.2
0.4998,66.2
0.4999,66.4
0.5,66.4
0.5001,66.4
0.5002,66.4
0.5003000000000001,66.4
0.5004000000000001,66.4
0.5005000000000001,66.4
0.5006,66.4
0.5007,66.4
0.5008,66.4
0.5009,66.4
0.501,66.2
0.5011,66.6
0.5012,66.2
0.5013000000000001,66.6
0.5014000000000001,66.4
0.5015000000000001,66.6
0.5016,66.4
0.5017,66.4
0.5018,66.4
0.5019,66.2
0.502,66.4
0.5021,66.4
0.5022,66.4
0.5023,66.2
0.5024000000000001,66.4
0.5025000000000001,66.2
0.5026,66.2
0.5027,66.4
0.5028,66.6
0.5029,66.4
0.503,66.4
0.5031,66.4
0.5032,66.4
0.5033,66.4
0.5034000000000001,66.2
0.5035000000000001,66.6
0.5036,66.6
0.5037,66.6
0.5038,66.4
0.5039,66.4
0.504,66.4
0.5041,66.6
0.5042,66.6
0.5043,66.4
0.5044000000000001,66.6
0.5045000000000001,66.6
0.5046,66.6
0.5047,66.6
0.5048,66.6
0.5049,66.6
0.505,66.8
0.5051,66.6
0.5052,66.6
0.5053,66.6
0.5054000000000001,66.6
0.5055000000000001,66.6
0.5056,66.6
0.5057,66.6
0.5058,66.6
0.5059,66.6
0.506,66.6
0.5061,66.4
0.5062,66.8
0.5063,66.8
0.5064000000000001,66.6
0.5065000000000001,66.6
0.5066,66.6
0.5067,66.8
0.5068,66.6
0.5069,66.8
0.507,66.8
0.5071,66.6
0.5072,66.6
0.5073,66.8
0.5074000000000001,66.8
0.5075000000000001,66.8
0.5076,66.8
0.5077,66.6
0.5078,66.8
0.5079,66.6
0.508,66.8
0.5081,66.8
0.5082,66.8
0.5083,66.8
0.5084000000000001,66.8
0.5085000000000001,66.8
0.5086,67.0
0.5087,66.8
0.5088,66.8
0.5089,66.8
0.509,66.8
0.5091,67.0
0.5092,66.8
0.5093,66.8
0.5094000000000001,66.8
0.5095000000000001,66.8
0.5096,67.0
0.5097,66.8
0.5098,66.8
0.5099,67.0
0.51,66.8
0.5101,66.8
0.5102,66.8
0.5103,66.8
0.5104000000000001,66.8
0.5105000000000001,66.8
0.5106,66.8
0.5107,66.8
0.5108,67.0
0.5109,67.0
0.511,67.0
0.5111,67.0
0.5112,66.8
0.5113,67.0
0.5114000000000001,67.0
0.5115000000000001,67.0
0.5116,67.0
0.5117,66.8
0.5118,67.2
0.5119,67.2
0.512,67.0
0.5121,67.0
0.5122,67.0
0.5123,67.0
0.5124000000000001,67.0
0.5125000000000001,67.0
0.5126000000000001,67.0
0.5127,67.0
0.5128,67.0
0.5129,67.0
0.513,67.2
0.5131,67.0
0.5132,67.2
0.5133,67.0
0.5134000000000001,67.0
0.5135000000000001,67.0
0.5136000000000001,66.8
0.5137,67.2
0.5138,67.2
0.5139,67.2
0.514,67.0
0.5141,67.2
0.5142,67.2
0.5143,67.2
0.5144000000000001,67.2
0.5145000000000001,67.4
0.5146000000000001,67.2
0.5147,67.0
0.5148,67.2
0.5149,67.2
0.515,67.2
0.5151,67.4
0.5152,67.2
0.5153,67.2
0.5154,67.2
0.5155000000000001,67.2
0.5156000000000001,67.2
0.5157,67.2
0.5158,67.2
0.5159,67.2
0.516,67.2
0.5161,67.2
0.5162,67.2
0.5163,67.2
0.5164,67.2
0.5165000000000001,67.2
0.5166000000000001,67.4
0.5167,67.2
0.5168,67.2
0.5169,67.2
0.517,67.4
0.5171,67.4
0.5172,67.2
0.5173,67.4
0.5174,67.4
0.5175000000000001,67.4
0.5176000000000001,67.2
0.5177,67.2
0.5178,67.4
0.5179,67.4
0.518,67.4
0.5181,67.4
0.5182,67.4
0.5183,67.4
0.5184,67.2
0.5185000000000001,67.4
0.5186000000000001,67.4
0.5187,67.6
0.5188,67.6
0.5189,67.2
0.519,67.4
0.5191,67.4
0.5192,67.4
0.5193,67.4
0.5194,67.4
0.5195000000000001,67.4
0.5196000000000001,67.4
0.5197,67.4
0.5198,67.4
0.5199,67.6
0.52,67.4
0.5201,67.6
0.5202,67.4
0.5203,67.4
0.5204,67.4
0.5205000000000001,67.6
0.5206000000000001,67.6
0.5207,67.4
0.5208,67.4
0.5209,67.4
0.521,67.4
0.5211,67.4
0.5212,67.6
0.5213,67.6
0.5214,67.6
0.5215000000000001,67.6
0.5216000000000001,67.4
0.5217,67.4
0.5218,67.8
0.5219,67.6
0.522,67.6
0.5221,67.8
0.5222,67.8
0.5223,67.6
0.5224,67.6
0.5225000000000001,67.6
0.5226000000000001,67.6
0.5227,67.6
0.5228,67.6
0.5229,67.6
0.523,67.6
0.5231,67.6
0.5232,67.8
0.5233,67.6
0.5234,67.8
0.5235000000000001,67.6
0.5236000000000001,67.8
0.5237,67.8
0.5238,67.6
0.5239,67.6
0.524,67.8
0.5241,67.6
0.5242,67.6
0.5243,67.8
0.5244,67.8
0.5245000000000001,67.8
0.5246000000000001,67.8
0.5247,67.8
0.5248,67.8
0.5249,67.8
0.525,68.0
0.5251,67.8
0.5252,67.8
0.5253,67.8
0.5254,67.8
0.5255000000000001,68.0
0.5256000000000001,68.0
0.5257000000000001,67.8
0.5258,68.0
0.5259,67.8
0.526,68.0
0.5261,67.8
0.5262,67.8
0.5263,67.8
0.5264,67.8
0.5265000000000001,68.0
0.5266000000000001,67.8
0.5267000000000001,68.0
0.5268,68.0
0.5269,68.0
0.527,68.0
0.5271,67.8
0.5272,68.0
0.5273,68.0
0.5274,68.0
0.5275000000000001,68.0
0.5276000000000001,67.8
0.5277000000000001,68.0
0.5278,68.2
0.5279,68.0
0.528,68.0
0.5281,67.8
0.5282,68.0
0.5283,68.0
0.5284,68.0
0.5285000000000001,68.0
0.5286000000000001,68.0
0.5287000000000001,67.8
0.5288,68.0
0.5289,68.0
0.529,68.0
0.5291,68.0
0.5292,67.8
0.5293,68.0
0.5294,68.2
0.5295,68.0
0.5296000000000001,68.0
0.5297000000000001,68.2
0.5298,68.2
0.5299,68.0
0.53,68.2
0.5301,68.2
0.5302,68.0
0.5303,68.2
0.5304,68.0
0.5305,68.2
0.5306000000000001,68.2
0.5307000000000001,68.4
0.5308,68.4
0.5309,68.0
0.531,68.4
0.5311,68.2
0.5312,68.2
0.5313,68.2
0.5314,68.2
0.5315,68.2
0.5316000000000001,68.2
0.5317000000000001,68.4
0.5318,68.4
0.5319,68.2
0.532,68.2
0.5321,68.4
0.5322,68.4
0.5323,68.2
0.5324,68.2
0.5325,68.2
0.5326000000000001,68.2
0.5327000000000001,68.2
0.5328,68.2
0.5329,68.2
0.533,68.4
0.5331,68.2
0.5332,68.2
0.5333,68.4
0.5334,68.4
0.5335,68.4
0.5336000000000001,68.4
0.5337000000000001,68.2
0.5338,68.4
0.5339,68.4
0.534,68.2
0.5341,68.4
0.5342,68.4
0.5343,68.4
0.5344,68.4
0.5345,68.4
0.5346000000000001,68.4
0.5347000000000001,68.4
0.5348,68.4
0.5349,68.4
0.535,68.4
0.5351,68.4
0.5352,68.4
0.5353,68.4
0.5354,68.6
0.5355,68.4
0.5356000000000001,68.4
0.5357000000000001,68.4
0.5358,68.4
0.5359,68.4
0.536,68.4
0.5361,68.4
0.5362,68.6
0.5363,68.4
0.5364,68.4
0.5365,68.6
0.5366000000000001,68.6
0.5367000000000001,68.4
0.5368,68.4
0.5369,68.4
0.537,68.4
0.5371,68.6
0.5372,68.6
0.5373,68.6
0.5374,68.6
0.5375,68.6
0.5376000000000001,68.6
0.5377000000000001,68.6
0.5378000000000001,68.6
0.5379,68.8
0.538,68.6
0.5381,68.6
0.5382,68.6
0.5383,68.8
0.5384,68.8
0.5385,68.6
0.5386000000000001,68.8
0.5387000000000001,68.6
0.5388000000000001,68.6
0.5389,68.8
0.539,68.6
0.5391,68.8
0.5392,68.6
0.5393,68.6
0.5394,68.8
0.5395,68.8
0.5396000000000001,68.8
0.5397000000000001,68.8
0.5398000000000001,68.8
0.5399,68.8
0.54,68.8
0.5401,68.6
0.5402,68.8
0.5403,68.8
0.5404,68.8
0.5405,68.8
0.5406000000000001,68.8
0.5407000000000001,68.8
0.5408000000000001,68.8
0.5409,68.8
0.541,69.0
0.5411,68.8
0.5412,69.0
0.5413,68.8
0.5414,68.8
0.5415,68.8
0.5416000000000001,68.8
0.5417000000000001,69.0
0.5418000000000001,68.8
0.5419,68.8
0.542,69.0
0.5421,68.6
0.5422,68.8
0.5423,68.8
0.5424,68.8
0.5425,68.8
0.5426,69.0
0.5427000000000001,69.0
0.5428000000000001,69.0
0.5429,69.2
0.543,68.8
0.5431,69.0
0.5432,69.0
0.5433,68.8
0.5434,69.0
0.5435,69.0
0.5436,68.8
0.5437000000000001,69.0
0.5438000000000001,69.0
0.5439,69.0
0.544,69.2
0.5441,69.0
0.5442,69.0
0.5443,69.2
0.5444,69.2
0.5445,69.2
0.5446,69.0
0.5447000000000001,69.0
0.5448000000000001,69.0
0.5449,69.2
0.545,69.0
0.5451,69.0
0.5452,69.2
0.5453,69.0
0.5454,69.2
0.5455,69.0
0.5456,69.2
0.5457000000000001,69.0
0.5458000000000001,69.0
0.5459,69.0
0.546,69.2
0.5461,69.2
0.5462,69.2
0.5463,69.2
0.5464,69.0
0.5465,69.2
0.5466,69.2
0.5467000000000001,69.2
0.5468000000000001,69.0
0.5469,69.2
0.547,69.4
0.5471,69.4
0.5472,69.0
0.5473,69.2
0.5474,69.2
0.5475,69.2
0.5476,69.2
0.5477000000000001,69.2
0.5478000000000001,69.2
0.5479,69.2
0.548,69.2
0.5481,69.4
0.5482,69.2
0.5483,69.2
0.5484,69.2
0.5485,69.2
0.5486,69.2
0.5487000000000001,69.2
0.5488000000000001,69.4
0.5489,69.4
0.549,69.2
0.5491,69.4
0.5492,69.4
0.5493,69.4
0.5494,69.4
0.5495,69.4
0.5496,69.4
0.5497000000000001,69.4
0.5498000000000001,69.4
0.5499,69.6
0.55,69.4
0.5501,69.6
0.5502,69.6
0.5503,69.6
0.5504,69.4
0.5505,69.4
0.5506,69.4
0.5507000000000001,69.2
0.5508000000000001,69.6
0.5509000000000001,69.4
0.551,69.6
0.5511,69.6
0.5512,69.6
0.5513,69.6
0.5514,69.4
0.5515,69.6
0.5516,69.6
0.5517000000000001,69.6
0.5518000000000001,69.4
0.5519000000000001,69.6
0.552,69.6
0.5521,69.4
0.5522,69.6
0.5523,69.6
0.5524,69.4
0.5525,69.6
0.5526,69.6
0.5527000000000001,69.6
0.5528000000000001,69.8
0.5529000000000001,69.6
0.553,69.6
0.5531,69.6
0.5532,69.6
0.5533,69.8
0.5534,69.8
0.5535,69.8
0.5536,69.8
0.5537000000000001,69.8
0.5538000000000001,69.6
0.5539000000000001,69.6
0.554,69.6
0.5541,69.6
0.5542,69.6
0.5543,69.8
0.5544,69.8
0.5545,69.8
0.5546,69.6
0.5547000000000001,69.8
0.5548000000000001,69.6
0.5549000000000001,69.8
0.555,69.8
0.5551,70.0
0.5552,69.8
0.5553,69.6
0.5554,69.6
0.5555,70.0
0.5556,69.8
0.5557,70.0
0.5558000000000001,69.6
0.5559000000000001,70.0
0.556,69.8
0.5561,69.8
0.5562,69.8
0.5563,70.0
0.5564,69.6
0.5565,70.0
0.5566,69.8
0.5567,69.8
0.5568000000000001,70.0
0.5569000000000001,70.0
0.557,70.0
0.5571,69.8
0.5572,69.8
0.5573,69.8
0.5574,69.8
0.5575,69.8
0.5576,70.0
0.5577,69.8
0.5578000000000001,69.8
0.5579000000000001,69.8
0.558,69.8
0.5581,70.0
0.5582,70.0
0.5583,70.0
0.5584,70.0
0.5585,70.0
0.5586,70.0
0.5587,69.8
0.5588000000000001,70.0
0.5589000000000001,69.8
0.559,70.0
0.5591,70.2
0.5592,70.0
0.5593,70.0
0.5594,70.2
0.5595,70.2
0.5596,70.0
0.5597,70.0
0.5598000000000001,70.0
0.5599000000000001,70.0
0.56,70.4
0.5601,70.2
0.5602,70.4
0.5603,70.2
0.5604,70.2
0.5605,70.4
0.5606,70.0
0.5607,70.2
0.5608000000000001,70.4
0.5609000000000001,70.4
0.561,70.4
0.5611,70.2
0.5612,70.0
0.5613,70.2
0.5614,70.2
0.5615,70.4
0.5616,70.2
0.5617,70.2
0.5618000000000001,70.2
0.5619000000000001,70.0
0.562,70.2
0.5621,70.2
0.5622,70.4
0.5623,70.2
0.5624,70.2
0.5625,70.2
0.5626,70.2
0.5627,70.4
0.5628000000000001,70.2
0.5629000000000001,70.2
0.5630000000000001,70.2
0.5631,70.4
0.5632,70.4
0.5633,70.4
0.5634,70.2
0.5635,70.4
0.5636,70.4
0.5637,70.2
0.5638000000000001,70.4
0.5639000000000001,70.4
0.5640000000000001,70.2
0.5641,70.4
0.5642,70.4
0.5643,70.4
0.5644,70.4
0.5645,70.2
0.5646,70.4
0.5647,70.4
0.5648000000000001,70.2
0.5649000000000001,70.2
0.5650000000000001,70.4
0.5651,70.4
0.5652,70.4
0.5653,70.2
0.5654,70.4
0.5655,70.2
0.5656,70.6
0.5657,70.2
0.5658000000000001,70.4
0.5659000000000001,70.4
0.5660000000000001,70.4
0.5661,70.4
0.5662,70.4
0.5663,70.4
0.5664,70.4
0.5665,70.4
0.5666,70.4
0.5667,70.6
0.5668000000000001,70.6
0.5669000000000001,70.4
0.5670000000000001,70.6
0.5671,70.2
0.5672,70.4
0.5673,70.6
0.5674,70.4
0.5675,70.6
0.5676,70.4
0.5677,70.4
0.5678000000000001,70.8
0.5679000000000001,70.4
0.5680000000000001,70.8
0.5681,70.6
0.5682,70.6
0.5683,70.4
0.5684,70.6
0.5685,70.4
0.5686,70.6
0.5687,70.6
0.5688,70.4
0.5689000000000001,70.4
0.5690000000000001,70.4
0.5691,70.6
0.5692,70.8
0.5693,70.8
0.5694,70.8
0.5695,70.8
0.5696,70.6
0.5697,70.8
0.5698,70.6
0.5699000000000001,70.8
0.5700000000000001,70.6
0.5701,70.6
0.5702,70.6
0.5703,70.4
0.5704,70.6
0.5705,70.6
0.5706,70.6
0.5707,70.8
0.5708,70.8
0.5709000000000001,70.8
0.5710000000000001,70.8
0.5711,70.6
0.5712,70.6
0.5713,70.6
0.5714,70.8
0.5715,70.4
0.5716,70.6
0.5717,70.8
0.5718,70.6
0.5719000000000001,70.6
0.5720000000000001,70.6
0.5721,70.6
0.5722,70.6
0.5723,70.6
0.5724,70.6
0.5725,70.8
0.5726,70.8
0.5727,70.6
0.5728,70.8
0.5729000000000001,70.8
0.5730000000000001,70.8
0.5731,70.6
0.5732,70.8
0.5733,70.6
0.5734,70.8
0.5735,71.0
0.5736,70.8
0.5737,70.8
0.5738,70.8
0.5739000000000001,70.6
0.5740000000000001,70.8
0.5741,71.0
0.5742,70.8
0.5743,71.0
0.5744,70.8
0.5745,71.0
0.5746,70.6
0.5747,70.8
0.5748,70.8
0.5749000000000001,70.8
0.5750000000000001,71.0
0.5751000000000001,70.8
0.5752,70.8
0.5753,71.0
0.5754,71.0
0.5755,71.0
0.5756,70.8
0.5757,71.2
0.5758,71.0
0.5759000000000001,70.8
0.5760000000000001,71.0
0.5761000000000001,71.0
0.5762,71.0
0.5763,71.0
0.5764,70.8
0.5765,70.8
0.5766,71.2
0.5767,71.0
0.5768,71.0
0.5769000000000001,71.0
0.5770000000000001,70.8
0.5771000000000001,71.0
0.5772,71.2
0.5773,70.8
0.5774,71.0
0.5775,71.0
0.5776,71.2
0.5777,71.0
0.5778,71.2
0.5779000000000001,71.0
0.5780000000000001,71.0
0.5781000000000001,71.2
0.5782,71.0
0.5783,71.0
0.5784,71.2
0.5785,70.8
0.5786,71.0
0.5787,70.8
0.5788,71.2
0.5789000000000001,71.2
0.5790000000000001,71.0
0.5791000000000001,71.2
0.5792,71.0
0.5793,71.2
0.5794,71.2
0.5795,71.2
0.5796,71.2
0.5797,71.0
0.5798,71.2
0.5799000000000001,71.2
0.5800000000000001,71.2
0.5801000000000001,71.0
0.5802,71.0
0.5803,71.2
0.5804,70.8
0.5805,71.2
0.5806,71.2
0.5807,71.0
0.5808,71.4
0.5809000000000001,71.2
0.5810000000000001,71.2
0.5811000000000001,71.2
0.5812,71.0
0.5813,71.2
0.5814,71.2
0.5815,71.2
0.5816,71.4
0.5817,71.2
0.5818,71.0
0.5819,71.2
0.5820000000000001,71.4
0.5821000000000001,71.0
0.5822,71.2
0.5823,71.2
0.5824,71.2
0.5825,71.2
0.5826,71.2
0.5827,71.0
0.5828,71.2
0.5829,71.2
0.5830000000000001,71.4
0.5831000000000001,71.4
0.5832,71.2
0.5833,71.4
0.5834,71.4
0.5835,71.2
0.5836,71.4
0.5837,71.4
0.5838,71.2
0.5839,71.4
0.5840000000000001,71.6
0.5841000000000001,71.6
0.5842,71.4
0.5843,71.2
0.5844,71.4
0.5845,71.2
0.5846,71.4
0.5847,71.2
0.5848,71.4
0.5849,71.4
0.5850000000000001,71.2
0.5851000000000001,71.2
0.5852,71.4
0.5853,71.2
0.5854,71.6
0.5855,71.0
0.5856,71.4
0.5857,71.4
0.5858,71.2
0.5859,71.4
0.5860000000000001,71.4
0.5861000000000001,71.4
0.5862,71.4
0.5863,71.2
0.5864,71.4
0.5865,71.6
0.5866,71.4
0.5867,71.4
0.5868,71.2
0.5869,71.4
0.5870000000000001,71.4
0.5871000000000001,71.6
0.5872,71.4
0.5873,71.4
0.5874,71.4
0.5875,71.6
0.5876,71.6
0.5877,71.6
0.5878,71.4
0.5879,71.6
0.5880000000000001,71.6
0.5881000000000001,71.6
0.5882000000000001,71.6
0.5883,71.6
0.5884,71.4
0.5885,71.6
0.5886,71.4
0.5887,71.4
0.5888,71.2
0.5889,71.6
0.5890000000000001,71.6
0.5891000000000001,71.6
0.5892000000000001,71.6
0.5893,71.6
0.5894,71.4
0.5895,71.6
0.5896,71.6
0.5897,71.8
0.5898,71.6
0.5899,71.6
0.5900000000000001,71.4
0.5901000000000001,71.4
0.5902000000000001,71.8
0.5903,71.6
0.5904,71.6
0.5905,71.8
0.5906,71.8
0.5907,71.6
0.5908,71.6
0.5909,71.6
0.5910000000000001,71.6
0.5911000000000001,71.8
0.5912000000000001,71.6
0.5913,71.6
0.5914,71.2
0.5915,71.8
0.5916,71.6
0.5917,71.4
0.5918,71.6
0.5919,71.8
0.5920000000000001,71.6
0.5921000000000001,71.8
0.5922000000000001,71.6
0.5923,71.4
0.5924,72.0
0.5925,71.6
0.5926,71.8
0.5927,71.4
0.5928,71.8
0.5929,71.8
0.5930000000000001,71.8
0.5931000000000001,71.6
0.5932000000000001,72.0
0.5933,72.0
0.5934,71.6
0.5935,72.0
0.5936,71.8
0.5937,71.8
0.5938,72.0
0.5939,72.0
0.5940000000000001,71.8
0.5941000000000001,71.8
0.5942000000000001,71.8
0.5943,72.0
0.5944,71.8
0.5945,71.8
0.5946,71.8
0.5947,72.0
0.5948,72.0
0.5949,71.8
0.595,71.8
0.5951000000000001,72.0
0.5952000000000001,71.8
0.5953,72.0
0.5954,71.8
0.5955,72.0
0.5956,71.8
0.5957,71.8
0.5958,72.0
0.5959,71.8
0.596,71.8
0.5961000000000001,72.0
0.5962000000000001,71.6
0.5963,71.8
0.5964,72.0
0.5965,72.0
0.5966,72.0
0.5967,72.0
0.5968,71.8
0.5969,72.0
0.597,72.0
0.5971000000000001,71.8
0.5972000000000001,72.0
0.5973,71.8
0.5974,72.0
0.5975,72.0
0.5976,72.0
0.5977,72.0
0.5978,72.0
0.5979,72.0
0.598,72.0
0.5981000000000001,72.0
0.5982000000000001,72.0
0.5983,71.8
0.5984,72.0
0.5985,71.8
0.5986,72.0
0.5987,71.8
0.5988,72.0
0.5989,72.0
0.599,72.0
0.5991000000000001,72.0
0.5992000000000001,72.0
0.5993,72.2
0.5994,72.0
0.5995,71.8
0.5996,72.0
0.5997,72.0
0.5998,72.0
0.5999,71.8
0.6,71.8
0.6001000000000001,72.2
0.6002000000000001,71.8
0.6003000000000001,72.0
0.6004,72.2
0.6005,72.2
0.6006,72.2
0.6007,72.0
0.6008,72.0
0.6009,72.0
0.601,72.0
0.6011000000000001,72.2
0.6012000000000001,72.0
0.6013000000000001,72.0
0.6014,72.0
0.6015,72.0
0.6016,71.8
0.6017,72.0
0.6018,72.0
0.6019,71.8
0.602,72.0
0.6021000000000001,72.0
0.6022000000000001,72.0
0.6023000000000001,72.0
0.6024,72.0
0.6025,71.8
0.6026,72.0
0.6027,72.0
0.6028,72.2
0.6029,72.2
0.603,72.0
0.6031000000000001,72.2
0.6032000000000001,72.2
0.6033000000000001,72.2
0.6034,72.2
0.6035,72.0
0.6036,72.0
0.6037,72.2
0.6038,72.2
0.6039,72.2
0.604,72.2
0.6041000000000001,72.0
0.6042000000000001,72.2
0.6043000000000001,72.0
0.6044,72.2
0.6045,72.0
0.6046,72.4
0.6047,72.2
0.6048,72.0
0.6049,72.2
0.605,72.2
0.6051000000000001,72.2
0.6052000000000001,72.4
0.6053000000000001,72.0
0.6054,72.0
0.6055,72.2
0.6056,72.2
0.6057,72.2
0.6058,72.2
0.6059,72.0
0.606,72.2
0.6061000000000001,72.2
0.6062000000000001,72.2
0.6063000000000001,72.2
0.6064,72.2
0.6065,72.0
0.6066,72.2
0.6067,72.0
0.6068,72.2
0.6069,72.2
0.607,72.0
0.6071000000000001,72.4
0.6072000000000001,72.2
0.6073000000000001,72.2
0.6074,72.2
0.6075,72.2
0.6076,72.2
0.6077,72.2
0.6078,72.4
0.6079,72.2
0.608,72.2
0.6081,72.4
0.6082000000000001,72.2
0.6083000000000001,72.2
0.6084,72.2
0.6085,72.0
0.6086,72.2
0.6087,72.2
0.6088,72.4
0.6089,72.4
0.609,72.4
0.6091,72.4
0.6092000000000001,72.4
0.6093000000000001,72.2
0.6094,72.2
0.6095,72.4
0.6096,72.4
0.6097,72.2
0.6098,72.0
0.6099,72.0
0.61,72.2
0.6101,72.2
0.6102000000000001,72.2
0.6103000000000001,72.2
0.6104,72.4
0.6105,72.4
0.6106,72.4
0.6107,72.2
0.6108,72.0
0.6109,72.2
0.611,72.4
0.6111,72.0
0.6112000000000001,72.2
0.6113000000000001,72.4
0.6114,72.4
0.6115,72.2
0.6116,72.2
0.6117,72.4
0.6118,72.2
0.6119,72.2
0.612,72.2
0.6121,72.2
0.6122000000000001,72.4
0.6123000000000001,72.4
0.6124,72.2
0.6125,72.4
0.6126,72.4
0.6127,72.4
0.6128,72.4
0.6129,72.4
0.613,72.2
0.6131,72.4
0.6132000000000001,72.6
0.6133000000000001,72.6
0.6134000000000001,72.4
0.6135,72.4
0.6136,72.4
0.6137,72.6
0.6138,72.4
0.6139,72.4
0.614,72.2
0.6141,72.6
0.6142000000000001,72.4
0.6143000000000001,72.2
0.6144000000000001,72.2
0.6145,72.4
0.6146,72.4
0.6147,72.4
0.6148,72.4
0.6149,72.6
0.615,72.4
0.6151,72.6
0.6152000000000001,72.4
0.6153000000000001,72.6
0.6154000000000001,72.6
0.6155,72.4
0.6156,72.4
0.6157,72.4
0.6158,72.2
0.6159,72.4
0.616,72.2
0.6161,72.4
0.6162000000000001,72.4
0.6163000000000001,72.6
0.6164000000000001,72.6
0.6165,72.4
0.6166,72.2
0.6167,72.6
0.6168,72.6
0.6169,72.4
0.617,72.6
0.6171,72.6
0.6172000000000001,72.6
0.6173000000000001,72.4
0.6174000000000001,72.4
0.6175,72.6
0.6176,72.6
0.6177,72.4
0.6178,72.6
0.6179,72.4
0.618,72.6
0.6181,72.4
0.6182000000000001,72.4
0.6183000000000001,72.4
0.6184000000000001,72.4
0.6185,72.4
0.6186,72.4
0.6187,72.6
0.6188,72.4
0.6189,72.6
0.619,72.6
0.6191,72.6
0.6192000000000001,72.4
0.6193000000000001,72.4
0.6194000000000001,72.6
0.6195,72.6
0.6196,72.6
0.6197,72.4
0.6198,72.4
0.6199,72.6
0.62,72.4
0.6201,72.4
0.6202000000000001,72.6
0.6203000000000001,72.8
0.6204000000000001,72.6
0.6205,72.6
0.6206,72.4
0.6207,72.4
0.6208,72.4
0.6209,72.8
0.621,72.6
0.6211,72.4
0.6212,72.6
0.6213000000000001,72.6
0.6214000000000001,72.4
0.6215,72.8
0.6216,72.8
0.6217,72.4
0.6218,72.4
0.6219,72.4
0.622,72.6
0.6221,72.6
0.6222,72.4
0.6223000000000001,72.6
0.6224000000000001,72.4
0.6225,72.6
0.6226,72.6
0.6227,72.6
0.6228,72.6
0.6229,72.6
0.623,72.6
0.6231,72.4
0.6232,72.8
0.6233000000000001,72.6
0.6234000000000001,72.6
0.6235,72.6
0.6236,72.6
0.6237,72.6
0.6238,72.8
0.6239,72.4
0.624,72.6
0.6241,72.6
0.6242,72.4
0.6243000000000001,72.4
0.6244000000000001,72.6
0.6245,72.6
0.6246,72.6
0.6247,72.6
0.6248,72.6
0.6249,72.8
0.625,72.6
0.6251,72.4
0.6252,72.6
0.6253000000000001,72.8
0.6254000000000001,72.6
0.6255000000000001,72.6
0.6256,72.6
0.6257,72.6
0.6258,72.6
0.6259,72.8
0.626,72.6
0.6261,72.8
0.6262,72.8
0.6263000000000001,72.6
0.6264000000000001,72.6
0.6265000000000001,72.6
0.6266,72.8
0.6267,72.6
0.6268,72.6
0.6269,72.6
0.627,72.4
0.6271,72.8
0.6272,72.6
0.6273000000000001,72.6
0.6274000000000001,72.8
0.6275000000000001,72.6
0.6276,72.8
0.6277,72.6
0.6278,72.8
0.6279,72.6
0.628,72.6
0.6281,72.6
0.6282,72.6
0.6283000000000001,72.8
0.6284000000000001,72.6
0.6285000000000001,72.8
0.6286,72.6
0.6287,72.6
0.6288,73.0
0.6289,72.8
0.629,72.8
0.6291,72.8
0.6292,72.6
0.6293000000000001,72.8
0.6294000000000001,72.8
0.6295000000000001,72.6
0.6296,72.6
0.6297,72.6
0.6298,72.8
0.6299,72.6
0.63,72.6
0.6301,72.8
0.6302,72.8
0.6303000000000001,72.6
0.6304000000000001,72.8
0.6305000000000001,72.6
0.6306,72.6
0.6307,72.6
0.6308,72.8
0.6309,72.6
0.631,72.6
0.6311,72.6
0.6312,72.6
0.6313000000000001,72.6
0.6314000000000001,72.8
0.6315000000000001,72.8
0.6316,72.4
0.6317,72.6
0.6318,72.6
0.6319,72.6
0.632,72.6
0.6321,72.6
0.6322,72.6
0.6323000000000001,72.6
0.6324000000000001,72.8
0.6325000000000001,72.6
0.6326,72.8
0.6327,72.8
0.6328,72.4
0.6329,72.8
0.633,72.8
0.6331,72.6
0.6332,72.8
0.6333000000000001,72.6
0.6334000000000001,72.6
0.6335000000000001,72.8
0.6336,72.8
0.6337,72.8
0.6338,72.6
0.6339,72.8
0.634,72.4
0.6341,72.6
0.6342,72.6
0.6343,72.6
0.6344000000000001,72.6
0.6345000000000001,72.6
0.6346,72.6
0.6347,72.6
0.6348,72.4
0.6349,72.8
0.635,72.4
0.6351,72.8
0.6352,72.8
0.6353,72.8
0.6354000000000001,72.8
0.6355000000000001,72.8
0.6356,72.8
0.6357,72.8
0.6358,72.6
0.6359,72.4
0.636,72.8
0.6361,72.8
0.6362,72.8
0.6363,72.8
0.6364000000000001,72.6
0.6365000000000001,72.6
0.6366,72.8
0.6367,72.6
0.6368,72.8
0.6369,72.8
0.637,72.4
0.6371,72.8
0.6372,72.8
0.6373,72.8
0.6374000000000001,72.8
0.6375000000000001,72.8
0.6376000000000001,72.8
0.6377,72.8
0.6378,72.8
0.6379,72.6
0.638,72.6
0.6381,72.6
0.6382,72.6
0.6383,72.6
0.6384000000000001,72.6
0.6385000000000001,72.6
0.6386000000000001,72.8
0.6387,72.6
0.6388,72.6
0.6389,72.6
0.639,72.6
0.6391,72.6
0.6392,72.6
0.6393,72.6
0.6394000000000001,72.6
0.6395000000000001,72.6
0.6396000000000001,72.6
0.6397,72.8
0.6398,72.4
0.6399,72.8
0.64,72.8
0.6401,72.8
0.6402,72.6
0.6403,72.8
0.6404000000000001,72.8
0.6405000000000001,72.6
0.6406000000000001,72.6
0.6407,72.8
0.6408,72.6
0.6409,72.4
0.641,72.8
0.6411,72.6
0.6412,72.4
0.6413,72.6
0.6414000000000001,72.8
0.6415000000000001,72.6
0.6416000000000001,72.4
0.6417,72.6
0.6418,72.6
0.6419,72.6
0.642,72.4
0.6421,72.6
0.6422,72.8
0.6423,72.8
0.6424000000000001,72.6
0.6425000000000001,72.8
0.6426000000000001,72.6
0.6427,72.8
0.6428,72.8
0.6429,72.6
0.643,72.8
0.6431,72.8
0.6432,72.6
0.6433,72.6
0.6434000000000001,72.8
0.6435000000000001,72.6
0.6436000000000001,72.8
0.6437,72.6
0.6438,72.8
0.6439,72.6
0.644,72.6
0.6441,72.6
0.6442,72.8
0.6443,72.6
0.6444000000000001,72.6
0.6445000000000001,72.4
0.6446000000000001,72.6
0.6447,72.6
0.6448,72.6
0.6449,72.6
0.645,72.6
0.6451,72.6
0.6452,72.6
0.6453,72.8
0.6454000000000001,72.8
0.6455000000000001,72.6
0.6456000000000001,72.6
0.6457,72.8
0.6458,72.4
0.6459,72.6
0.646,72.6
0.6461,72.6
0.6462,72.6
0.6463,72.4
0.6464000000000001,72.8
0.6465000000000001,72.6
0.6466000000000001,72.4
0.6467,72.6
0.6468,72.8
0.6469,72.6
0.647,72.8
0.6471,72.6
0.6472,73.0
0.6473,72.6
0.6474000000000001,72.6
0.6475000000000001,72.6
0.6476000000000001,72.6
0.6477,72.6
0.6478,72.6
0.6479,72.8
0.648,72.4
0.6481,72.6
0.6482,72.6
0.6483,72.6
0.6484,72.6
0.6485000000000001,72.4
0.6486000000000001,72.4
0.6487,72.6
0.6488,72.6
0.6489,72.6
0.649,72.6
0.6491,72.8
0.6492,72.6
0.6493,72.6
0.6494,72.8
0.6495000000000001,72.4
0.6496000000000001,72.6
0.6497,72.6
0.6498,72.8
0.6499,72.8
0.65,72.6
0.6501,72.8
0.6502,72.6
0.6503,72.8
0.6504,72.4
0.6505000000000001,72.4
0.6506000000000001,72.6
0.6507000000000001,72.6
0.6508,72.6
0.6509,72.8
0.651,72.6
0.6511,72.2
0.6512,72.6
0.6513,72.6
0.6514,72.4
0.6515000000000001,72.4
0.6516000000000001,72.4
0.6517000000000001,72.4
0.6518,72.6
0.6519,72.4
0.652,72.4
0.6521,72.6
0.6522,72.4
0.6523,72.6
0.6524,72.6
0.6525000000000001,72.6
0.6526000000000001,72.6
0.6527000000000001,72.6
0.6528,72.6
0.6529,72.6
0.653,72.6
0.6531,72.4
0.6532,72.6
0.6533,72.6
0.6534,72.6
0.6535000000000001,72.6
0.6536000000000001,72.4
0.6537000000000001,72.4
0.6538,72.4
0.6539,72.4
0.654,72.6
0.6541,72.6
0.6542,72.4
0.6543,72.4
0.6544,72.4
0.6545000000000001,72.6
0.6546000000000001,72.4
0.6547000000000001,72.6
0.6548,72.4
0.6549,72.6
0.655,72.4
0.6551,72.4
0.6552,72.6
0.6553,72.6
0.6554,72.2
0.6555000000000001,72.4
0.6556000000000001,72.4
0.6557000000000001,72.4
0.6558,72.4
0.6559,72.6
0.656,72.6
0.6561,72.4
0.6562,72.4
0.6563,72.6
0.6564,72.4
0.6565000000000001,72.4
0.6566000000000001,72.6
0.6567000000000001,72.6
0.6568,72.6
0.6569,72.6
0.657,72.4
0.6571,72.4
0.6572,72.4
0.6573,72.8
0.6574,72.6
0.6575000000000001,72.6
0.6576000000000001,72.6
0.6577000000000001,72.4
0.6578,72.4
0.6579,72.4
0.658,72.4
0.6581,72.4
0.6582,72.6
0.6583,72.6
0.6584,72.6
0.6585000000000001,72.4
0.6586000000000001,72.4
0.6587000000000001,72.6
0.6588,72.6
0.6589,72.4
0.659,72.6
0.6591,72.4
0.6592,72.6
0.6593,72.4
0.6594,72.4
0.6595000000000001,72.6
0.6596000000000001,72.4
0.6597000000000001,72.4
0.6598,72.6
0.6599,72.4
0.66,72.6
0.6601,72.4
0.6602,72.4
0.6603,72.4
0.6604,72.4
0.6605000000000001,72.4
0.6606000000000001,72.4
0.6607000000000001,72.4
0.6608,72.4
0.6609,72.4
0.661,72.4
0.6611,72.2
0.6612,72.4
0.6613,72.4
0.6614,72.4
0.6615,72.4
0.6616000000000001,72.2
0.6617000000000001,72.6
0.6618,72.4
0.6619,72.2
0.662,72.4
0.6621,72.4
0.6622,72.4
0.6623,72.6
0.6624,72.2
0.6625,72.4
0.6626000000000001,72.4
0.6627000000000001,72.4
0.6628000000000001,72.4
0.6629,72.4
0.663,72.2
0.6631,72.4
0.6632,72.6
0.6633,72.4
0.6634,72.6
0.6635,72.2
0.6636000000000001,72.4
0.6637000000000001,72.2
0.6638000000000001,72.2
0.6639,72.2
0.664,72.4
0.6641,72.4
0.6642,72.2
0.6643,72.2
0.6644,72.4
0.6645,72.2
0.6646000000000001,72.4
0.6647000000000001,72.2
0.6648000000000001,72.4
0.6649,72.4
0.665,72.2
0.6651,72.2
0.6652,72.4
0.6653,72.2
0.6654,72.4
0.6655,72.4
0.6656000000000001,72.4
0.6657000000000001,72.4
0.6658000000000001,72.2
0.6659,72.2
0.666,72.2
0.6661,72.0
0.6662,72.4
0.6663,72.4
0.6664,72.2
0.6665,72.2
0.6666000000000001,72.4
0.6667000000000001,72.4
0.6668000000000001,72.4
0.6669,72.4
0.667,72.4
0.6671,72.4
0.6672,72.4
0.6673,72.4
0.6674,72.2
0.6675,72.2
0.6676000000000001,72.2
0.6677000000000001,72.4
0.6678000000000001,72.2
0.6679,72.2
0.668,72.2
0.6681,72.2
0.6682,72.2
0.6683,72.2
0.6684,72.4
0.6685,72.4
0.6686000000000001,72.2
0.6687000000000001,72.2
0.6688000000000001,72.2
0.6689,72.2
0.669,72.2
0.6691,72.4
0.6692,72.2
0.6693,72.0
0.6694,72.2
0.6695,72.2
0.6696000000000001,72.2
0.6697000000000001,72.2
0.6698000000000001,72.2
0.6699,72.4
0.67,72.4
0.6701,72.0
0.6702,72.0
0.6703,72.2
0.6704,72.4
0.6705,72.2
0.6706000000000001,72.0
0.6707000000000001,72.2
0.6708000000000001,72.0
0.6709,72.0
0.671,72.2
0.6711,72.2
0.6712,72.2
0.6713,72.0
0.6714,72.2
0.6715,72.0
0.6716000000000001,72.0
0.6717000000000001,72.0
0.6718000000000001,72.0
0.6719,72.0
0.672,72.0
0.6721,72.0
0.6722,72.2
0.6723,72.0
0.6724,72.0
0.6725,72.2
0.6726000000000001,72.0
0.6727000000000001,72.2
0.6728000000000001,72.4
0.6729,71.8
0.673,72.0
0.6731,72.2
0.6732,72.2
0.6733,72.2
0.6734,72.0
0.6735,72.2
0.6736000000000001,72.0
0.6737000000000001,72.0
0.6738000000000001,72.0
0.6739,72.2
0.674,72.0
0.6741,72.0
0.6742,72.0
0.6743,72.0
0.6744,72.0
0.6745,72.0
0.6746,72.0
0.6747000000000001,72.0
0.6748000000000001,72.2
0.6749,71.8
0.675,72.0
0.6751,72.2
0.6752,71.8
0.6753,72.2
0.6754,71.8
0.6755,72.0
0.6756,72.2
0.6757000000000001,72.0
0.6758000000000001,72.0
0.6759000000000001,72.0
0.676,72.0
0.6761,72.0
0.6762,72.0
0.6763,72.0
0.6764,72.0
0.6765,71.8
0.6766,72.0
0.6767000000000001,72.0
0.6768000000000001,72.0
0.6769000000000001,72.0
0.677,72.0
0.6771,72.2
0.6772,72.2
0.6773,72.0
0.6774,72.0
0.6775,72.0
0.6776,72.0
0.6777000000000001,71.8
0.6778000000000001,72.0
0.6779000000000001,71.8
0.678,71.8
0.6781,72.0
0.6782,72.0
0.6783,72.0
0.6784,72.0
0.6785,72.0
0.6786,72.0
0.6787000000000001,72.0
0.6788000000000001,72.0
0.6789000000000001,72.0
0.679,72.0
0.6791,71.8
0.6792,71.8
0.6793,72.0
0.6794,71.8
0.6795,71.8
0.6796,72.0
0.6797000000000001,72.0
0.6798000000000001,72.0
0.6799000000000001,72.0
0.68,71.8
0.6801,71.8
0.6802,71.8
0.6803,72.0
0.6804,71.8
0.6805,71.8
0.6806,72.0
0.6807000000000001,71.8
0.6808000000000001,71.8
0.6809000000000001,71.8
0.681,72.0
0.6811,71.8
0.6812,71.8
0.6813,71.8
0.6814,71.8
0.6815,72.0
0.6816,71.8
0.6817000000000001,71.8
0.6818000000000001,71.6
0.6819000000000001,71.8
0.682,71.8
0.6821,72.0
0.6822,71.8
0.6823,72.0
0.6824,72.0
0.6825,71.8
0.6826,71.6
0.6827000000000001,71.8
0.6828000000000001,71.6
0.6829000000000001,71.6
0.683,72.0
0.6831,71.8
0.6832,71.8
0.6833,71.6
0.6834,72.0
0.6835,71.8
0.6836,71.6
0.6837000000000001,71.6
0.6838000000000001,71.6
0.6839000000000001,71.8
0.684,71.6
0.6841,71.8
0.6842,71.8
0.6843,71.8
0.6844,71.8
0.6845,71.6
0.6846,71.6
0.6847000000000001,71.6
0.6848000000000001,71.6
0.6849000000000001,72.0
0.685,71.6
0.6851,71.6
0.6852,71.8
0.6853,71.4
0.6854,71.6
0.6855,71.6
0.6856,71.6
0.6857000000000001,71.6
0.6858000000000001,71.6
0.6859000000000001,71.4
0.686,71.8
0.6861,71.6
0.6862,71.6
0.6863,71.8
0.6864,71.6
0.6865,71.6
0.6866,71.6
0.6867000000000001,71.6
0.6868000000000001,71.6
0.6869000000000001,71.6
0.687,72.0
0.6871,71.4
0.6872,71.6
0.6873,71.6
0.6874,71.4
0.6875,71.6
0.6876,71.4
0.6877,71.6
0.6878000000000001,71.4
0.6879000000000001,71.6
0.6880000000000001,71.6
0.6881,71.6
0.6882,71.6
0.6883,71.6
0.6884,71.6
0.6885,71.6
0.6886,71.2
0.6887,71.6
0.6888000000000001,71.6
0.6889000000000001,71.6
0.6890000000000001,71.4
0.6891,71.2
0.6892,71.6
0.6893,71.4
0.6894,71.4
0.6895,71.6
0.6896,71.4
0.6897,71.6
0.6898000000000001,71.4
0.6899000000000001,71.4
0.6900000000000001,71.4
0.6901,71.4
0.6902,71.4
0.6903,71.2
0.6904,71.2
0.6905,71.4
0.6906,71.2
0.6907,71.2
0.6908000000000001,71.4
0.6909000000000001,71.4
0.6910000000000001,71.2
0.6911,71.2
0.6912,71.2
0.6913,71.2
0.6914,71.6
0.6915,71.2
0.6916,71.4
0.6917,71.2
0.6918000000000001,71.4
0.6919000000000001,71.4
0.6920000000000001,71.4
0.6921,71.2
0.6922,71.2
0.6923,71.2
0.6924,71.4
0.6925,71.4
0.6926,71.2
0.6927,71.2
0.6928000000000001,71.4
0.6929000000000001,71.6
0.6930000000000001,71.4
0.6931,71.4
0.6932,71.2
0.6933,71.4
0.6934,71.2
0.6935,71.2
0.6936,71.2
0.6937,71.4
0.6938000000000001,71.4
0.6939000000000001,71.2
0.6940000000000001,71.0
0.6941,71.2
0.6942,71.0
0.6943,71.4
0.6944,71.2
0.6945,71.2
0.6946,71.2
0.6947,71.2
0.6948000000000001,71.2
0.6949000000000001,71.2
0.6950000000000001,71.2
0.6951,71.2
0.6952,71.0
0.6953,71.0
0.6954,71.0
0.6955,71.2
0.6956,71.2
0.6957,71.2
0.6958000000000001,71.0
0.6959000000000001,71.2
0.6960000000000001,71.2
0.6961,71.2
0.6962,71.0
0.6963,71.0
0.6964,71.2
0.6965,71.2
0.6966,71.2
0.6967,71.2
0.6968000000000001,71.0
0.6969000000000001,71.2
0.6970000000000001,71.2
0.6971,71.2
0.6972,71.0
0.6973,71.0
0.6974,71.0
0.6975,71.2
0.6976,71.0
0.6977,71.2
0.6978000000000001,71.0
0.6979000000000001,71.2
0.6980000000000001,71.2
0.6981,71.0
0.6982,71.2
0.6983,71.0
0.6984,71.0
0.6985,71.0
0.6986,71.2
0.6987,71.0
0.6988000000000001,71.0
0.6989000000000001,71.0
0.6990000000000001,70.8
0.6991,71.0
0.6992,70.6
0.6993,70.8
0.6994,71.0
0.6995,71.0
0.6996,71.0
0.6997,71.2
0.6998000000000001,71.0
0.6999000000000001,70.8
0.7000000000000001,70.8
0.7001000000000001,71.0
0.7002,70.8
0.7003,71.0
0.7004,71.0
0.7005,70.8
0.7006,70.6
0.7007,71.0
0.7008,71.0
0.7009000000000001,70.6
0.7010000000000001,70.6
0.7011000000000001,70.8
0.7012,70.6
0.7013,71.0
0.7014,70.8
0.7015,70.6
0.7016,71.0
0.7017,70.8
0.7018,70.8
0.7019000000000001,70.8
0.7020000000000001,70.8
0.7021000000000001,70.8
0.7022,70.8
0.7023,70.6
0.7024,70.8
0.7025,71.0
0.7026,71.0
0.7027,71.0
0.7028,70.8
0.7029000000000001,71.0
0.7030000000000001,70.6
0.7031000000000001,70.6
0.7032,71.0
0.7033,70.8
0.7034,70.8
0.7035,70.6
0.7036,70.8
0.7037,70.8
0.7038,70.6
0.7039000000000001,70.8
0.7040000000000001,70.8
0.7041000000000001,70.8
0.7042,70.8
0.7043,70.6
0.7044,70.8
0.7045,70.6
0.7046,70.6
0.7047,70.6
0.7048,70.6
0.7049000000000001,70.6
0.7050000000000001,70.8
0.7051000000000001,70.6
0.7052,70.6
0.7053,70.6
0.7054,70.6
0.7055,70.8
0.7056,70.6
0.7057,70.6
0.7058,70.8
0.7059000000000001,70.6
0.7060000000000001,70.6
0.7061000000000001,70.6
0.7062,70.6
0.7063,70.6
0.7064,70.6
0.7065,70.8
0.7066,70.8
0.7067,70.6
0.7068,70.8
0.7069000000000001,70.6
0.7070000000000001,70.6
0.7071000000000001,70.6
0.7072,70.4
0.7073,70.8
0.7074,70.2
0.7075,70.6
0.7076,70.6
0.7077,70.4
0.7078,70.6
0.7079000000000001,70.6
0.7080000000000001,70.4
0.7081000000000001,70.6
0.7082,70.6
0.7083,70.4
0.7084,70.6
0.7085,70.6
0.7086,70.6
0.7087,70.6
0.7088,70.6
0.7089000000000001,70.2
0.7090000000000001,70.4
0.7091000000000001,70.4
0.7092,70.4
0.7093,70.6
0.7094,70.6
0.7095,70.6
0.7096,70.4
0.7097,70.4
0.7098,70.2
0.7099000000000001,70.4
0.7100000000000001,70.4
0.7101000000000001,70.2
0.7102,70.2
0.7103,70.4
0.7104,70.4
0.7105,70.2
0.7106,70.4
0.7107,70.4
0.7108,70.2
0.7109000000000001,70.2
0.7110000000000001,70.2
0.7111000000000001,70.4
0.7112,70.6
0.7113,70.2
0.7114,70.2
0.7115,70.2
0.7116,70.4
0.7117,70.4
0.7118,70.4
0.7119000000000001,70.2
0.7120000000000001,70.4
0.7121000000000001,70.4
0.7122,70.2
0.7123,70.4
0.7124,70.2
0.7125,70.2
0.7126,70.4
0.7127,70.4
0.7128,70.4
0.7129000000000001,70.2
0.7130000000000001,70.4
0.7131000000000001,70.4
0.7132000000000001,70.2
0.7133,70.2
0.7134,70.2
0.7135,70.4
0.7136,70.4
0.7137,70.2
0.7138,70.2
0.7139,70.4
0.7140000000000001,70.0
0.7141000000000001,70.4
0.7142000000000001,70.2
0.7143,70.2
0.7144,70.2
0.7145,70.0
0.7146,70.2
0.7147,70.2
0.7148,70.0
0.7149,70.0
0.7150000000000001,70.0
0.7151000000000001,70.0
0.7152000000000001,70.2
0.7153,70.0
0.7154,70.0
0.7155,70.0
0.7156,69.8
0.7157,70.2
0.7158,70.0
0.7159,70.2
0.7160000000000001,70.0
0.7161000000000001,70.0
0.7162000000000001,70.0
0.7163,70.0
0.7164,70.2
0.7165,70.0
0.7166,70.0
0.7167,70.0
0.7168,70.0
0.7169,70.2
0.7170000000000001,70.2
0.7171000000000001,69.8
0.7172000000000001,70.0
0.7173,70.0
0.7174,69.8
0.7175,70.0
0.7176,70.0
0.7177,70.0
0.7178,70.0
0.7179,70.0
0.7180000000000001,70.0
0.7181000000000001,70.0
0.7182000000000001,70.0
0.7183,69.8
0.7184,70.0
0.7185,69.8
0.7186,70.0
0.7187,69.8
0.7188,69.8
0.7189,70.0
0.7190000000000001,69.8
0.7191000000000001,69.8
0.7192000000000001,69.8
0.7193,70.0
0.7194,70.0
0.7195,69.8
0.7196,69.8
0.7197,69.6
0.7198,69.8
0.7199,69.8
0.7200000000000001,69.6
0.7201000000000001,69.8
0.7202000000000001,69.8
0.7203,69.8
0.7204,69.8
0.7205,69.8
0.7206,70.0
0.7207,69.6
0.7208,69.6
0.7209,69.6
0.7210000000000001,69.6
0.7211000000000001,70.0
0.7212000000000001,69.6
0.7213,69.6
0.7214,69.6
0.7215,69.8
0.7216,69.8
0.7217,69.6
0.7218,69.4
0.7219,69.8
0.7220000000000001,69.8
0.7221000000000001,69.4
0.7222000000000001,69.4
0.7223,69.8
0.7224,69.6
0.7225,69.8
0.7226,69.6
0.7227,69.6
0.7228,69.8
0.7229,69.6
0.7230000000000001,69.8
0.7231000000000001,69.6
0.7232000000000001,69.6
0.7233,69.4
0.7234,69.6
0.7235,69.4
0.7236,69.6
0.7237,69.4
0.7238,69.6
0.7239,69.2
0.7240000000000001,69.4
0.7241000000000001,69.4
0.7242000000000001,69.4
0.7243,69.6
0.7244,69.4
0.7245,69.6
0.7246,69.4
0.7247,69.2
0.7248,69.4
0.7249,69.4
0.7250000000000001,69.4
0.7251000000000001,69.6
0.7252000000000001,69.4
0.7253000000000001,69.4
0.7254,69.6
0.7255,69.4
0.7256,69.4
0.7257,69.4
0.7258,69.4
0.7259,69.6
0.7260000000000001,69.6
0.7261000000000001,69.4
0.7262000000000001,69.2
0.7263000000000001,69.4
0.7264,69.4
0.7265,69.4
0.7266,69.4
0.7267,69.4
0.7268,69.6
0.7269,69.4
0.727,69.4
0.7271000000000001,69.2
0.7272000000000001,69.4
0.7273000000000001,69.2
0.7274,69.4
0.7275,69.2
0.7276,69.2
0.7277,69.2
0.7278,69.2
0.7279,69.2
0.728,69.4
0.7281000000000001,69.2
0.7282000000000001,69.2
0.7283000000000001,69.2
0.7284,69.2
0.7285,69.2
0.7286,69.0
0.7287,69.2
0.7288,69.2
0.7289,69.0
0.729,69.0
0.7291000000000001,69.2
0.7292000000000001,69.2
0.7293000000000001,69.2
0.7294,69.2
0.7295,69.2
0.7296,69.2
0.7297,69.2
0.7298,69.0
0.7299,69.0
0.73,69.2
0.7301000000000001,69.2
0.7302000000000001,69.0
0.7303000000000001,69.0
0.7304,69.0
0.7305,69.0
0.7306,69.0
0.7307,69.0
0.7308,69.0
0.7309,69.0
0.731,69.2
0.7311000000000001,69.0
0.7312000000000001,69.0
0.7313000000000001,69.0
0.7314,69.2
0.7315,68.8
0.7316,69.0
0.7317,69.0
0.7318,69.0
0.7319,69.0
0.732,69.0
0.7321000000000001,69.0
0.7322000000000001,69.0
0.7323000000000001,69.0
0.7324,69.0
0.7325,69.0
0.7326,68.8
0.7327,68.8
0.7328,68.8
0.7329,69.0
0.733,69.0
0.7331000000000001,68.8
0.7332000000000001,68.8
0.7333000000000001,68.8
0.7334,68.8
0.7335,69.0
0.7336,68.8
0.7337,68.8
0.7338,69.0
0.7339,68.8
0.734,68.8
0.7341000000000001,68.8
0.7342000000000001,69.0
0.7343000000000001,69.0
0.7344,68.8
0.7345,68.8
0.7346,68.8
0.7347,68.8
0.7348,68.8
0.7349,68.6
0.735,68.8
0.7351000000000001,68.8
0.7352000000000001,68.6
0.7353000000000001,68.8
0.7354,68.8
0.7355,68.6
0.7356,68.6
0.7357,68.8
0.7358,68.8
0.7359,68.8
0.736,68.8
0.7361000000000001,68.8
0.7362000000000001,68.8
0.7363000000000001,68.6
0.7364,68.6
0.7365,68.8
0.7366,68.8
0.7367,68.8
0.7368,68.6
0.7369,68.8
0.737,68.6
0.7371000000000001,68.6
0.7372000000000001,68.4
0.7373000000000001,68.4
0.7374,68.4
0.7375,68.8
0.7376,68.6
0.7377,68.6
0.7378,68.6
0.7379,68.8
0.738,68.6
0.7381000000000001,68.6
0.7382000000000001,68.6
0.7383000000000001,68.4
0.7384000000000001,68.6
0.7385,68.4
0.7386,68.4
0.7387,68.6
0.7388,68.4
0.7389,68.6
0.739,68.4
0.7391000000000001,68.4
0.7392000000000001,68.4
0.7393000000000001,68.4
0.7394000000000001,68.4
0.7395,68.4
0.7396,68.6
0.7397,68.4
0.7398,68.4
0.7399,68.2
0.74,68.6
0.7401,68.4
0.7402000000000001,68.4
0.7403000000000001,68.4
0.7404000000000001,68.4
0.7405,68.4
0.7406,68.4
0.7407,68.2
0.7408,68.4
0.7409,68.4
0.741,68.2
0.7411,68.2
0.7412000000000001,68.4
0.7413000000000001,68.4
0.7414000000000001,68.2
0.7415,68.2
0.7416,68.4
0.7417,68.4
0.7418,68.4
0.7419,68.4
0.742,68.2
0.7421,68.4
0.7422000000000001,68.4
0.7423000000000001,68.2
0.7424000000000001,68.2
0.7425,68.2
0.7426,68.4
0.7427,68.2
0.7428,68.4
0.7429,68.4
0.743,68.2
0.7431,68.2
0.7432000000000001,68.4
0.7433000000000001,68.2
0.7434000000000001,68.2
0.7435,68.2
0.7436,68.2
0.7437,68.2
0.7438,68.2
0.7439,68.2
0.744,68.2
0.7441,68.2
0.7442000000000001,68.0
0.7443000000000001,68.2
0.7444000000000001,68.2
0.7445,68.0
0.7446,68.0
0.7447,68.2
0.7448,68.0
0.7449,68.2
0.745,68.2
0.7451,68.2
0.7452000000000001,68.2
0.7453000000000001,68.0
0.7454000000000001,68.0
0.7455,68.0
0.7456,68.2
0.7457,68.0
0.7458,68.0
0.7459,68.0
0.746,68.0
0.7461,68.0
0.7462000000000001,68.0
0.7463000000000001,67.8
0.7464000000000001,68.0
0.7465,68.0
0.7466,67.8
0.7467,68.0
0.7468,68.2
0.7469,68.0
0.747,67.8
0.7471,67.8
0.7472000000000001,68.0
0.7473000000000001,67.8
0.7474000000000001,68.0
0.7475,67.8
0.7476,67.8
0.7477,67.8
0.7478,68.0
0.7479,68.0
0.748,67.8
0.7481,68.0
0.7482000000000001,68.0
0.7483000000000001,68.0
0.7484000000000001,67.8
0.7485,67.8
0.7486,67.8
0.7487,67.8
0.7488,68.0
0.7489,68.0
0.749,67.8
0.7491,67.8
0.7492000000000001,67.8
0.7493000000000001,67.8
0.7494000000000001,67.8
0.7495,68.0
0.7496,67.8
0.7497,67.8
0.7498,67.6
0.7499,67.8
0.75,67.8
0.7501,67.8
0.7502000000000001,67.6
0.7503000000000001,67.8
0.7504000000000001,67.6
0.7505000000000001,67.6
0.7506,67.8
0.7507,67.8
0.7508,67.6
0.7509,67.6
0.751,67.8
0.7511,67.8
0.7512000000000001,67.6
0.7513000000000001,67.8
0.7514000000000001,67.4
0.7515000000000001,67.8
0.7516,67.6
0.7517,67.6
0.7518,67.6
0.7519,67.6
0.752,67.6
0.7521,67.6
0.7522000000000001,67.6
0.7523000000000001,67.6
0.7524000000000001,67.8
0.7525000000000001,67.6
0.7526,67.6
0.7527,67.6
0.7528,67.6
0.7529,67.6
0.753,67.4
0.7531,67.6
0.7532,67.6
0.7533000000000001,67.6
0.7534000000000001,67.4
0.7535000000000001,67.6
0.7536,67.4
0.7537,67.6
0.7538,67.6
0.7539,67.6
0.754,67.4
0.7541,67.6
0.7542,67.4
0.7543000000000001,67.4
0.7544000000000001,67.6
0.7545000000000001,67.4
0.7546,67.6
0.7547,67.6
0.7548,67.4
0.7549,67.4
0.755,67.4
0.7551,67.4
0.7552,67.2
0.7553000000000001,67.4
0.7554000000000001,67.4
0.7555000000000001,67.6
0.7556,67.6
0.7557,67.6
0.7558,67.4
0.7559,67.4
0.756,67.4
0.7561,67.4
0.7562,67.2
0.7563000000000001,67.4
0.7564000000000001,67.2
0.7565000000000001,67.4
0.7566,67.4
0.7567,67.4
0.7568,67.2
0.7569,67.4
0.757,67.2
0.7571,67.4
0.7572,67.2
0.7573000000000001,67.6
0.7574000000000001,67.2
0.7575000000000001,67.2
0.7576,67.4
0.7577,67.2
0.7578,67.4
0.7579,67.2
0.758,67.2
0.7581,67.2
0.7582,67.2
0.7583000000000001,67.2
0.7584000000000001,67.2
0.7585000000000001,67.2
0.7586,67.2
0.7587,67.4
0.7588,67.0
0.7589,67.2
0.759,67.4
0.7591,67.2
0.7592,67.2
0.7593000000000001,67.2
0.7594000000000001,67.2
0.7595000000000001,67.0
0.7596,67.2
0.7597,67.2
0.7598,67.2
0.7599,67.2
0.76,67.2
0.7601,67.2
0.7602,67.0
0.7603000000000001,67.2
0.7604000000000001,67.2
0.7605000000000001,67.2
0.7606,67.0
0.7607,67.0
0.7608,67.2
0.7609,67.2
0.761,67.2
0.7611,67.2
0.7612,67.2
0.7613000000000001,67.2
0.7614000000000001,67.0
0.7615000000000001,67.0
0.7616,67.2
0.7617,66.8
0.7618,67.0
0.7619,67.0
0.762,66.8
0.7621,67.0
0.7622,67.0
0.7623000000000001,67.2
0.7624000000000001,67.0
0.7625000000000001,67.0
0.7626000000000001,67.0
0.7627,66.8
0.7628,66.8
0.7629,66.8
0.763,67.0
0.7631,66.8
0.7632,66.8
0.7633000000000001,66.8
0.7634000000000001,67.0
0.7635000000000001,66.8
0.7636000000000001,67.0
0.7637,66.8
0.7638,67.0
0.7639,66.8
0.764,67.0
0.7641,66.8
0.7642,66.8
0.7643000000000001,66.8
0.7644000000000001,66.8
0.7645000000000001,66.8
0.7646000000000001,66.8
0.7647,66.8
0.7648,66.8
0.7649,67.0
0.765,66.8
0.7651,66.6
0.7652,66.8
0.7653000000000001,66.8
0.7654000000000001,66.8
0.7655000000000001,66.8
0.7656000000000001,66.8
0.7657,67.0
0.7658,66.8
0.7659,66.8
0.766,66.8
0.7661,66.8
0.7662,66.8
0.7663000000000001,66.8
0.7664000000000001,66.6
0.7665000000000001,66.6
0.7666000000000001,66.6
0.7667,66.8
0.7668,66.6
0.7669,66.6
0.767,66.4
0.7671,66.6
0.7672,66.8
0.7673,66.6
0.7674000000000001,66.8
0.7675000000000001,66.8
0.7676000000000001,66.8
0.7677,66.6
0.7678,66.6
0.7679,66.4
0.768,66.6
0.7681,66.6
0.7682,66.4
0.7683,66.4
0.7684000000000001,66.6
0.7685000000000001,66.4
0.7686000000000001,66.4
0.7687,66.6
0.7688,66.4
0.7689,66.6
0.769,66.6
0.7691,66.6
0.7692,66.6
0.7693,66.6
0.7694000000000001,66.6
0.7695000000000001,66.4
0.7696000000000001,66.6
0.7697,66.6
0.7698,66.4
0.7699,66.4
0.77,66.6
0.7701,66.6
0.7702,66.4
0.7703,66.4
0.7704000000000001,66.6
0.7705000000000001,66.4
0.7706000000000001,66.6
0.7707,66.4
0.7708,66.2
0.7709,66.4
0.771,66.6
0.7711,66.4
0.7712,66.6
0.7713,66.4
0.7714000000000001,66.4
0.7715000000000001,66.4
0.7716000000000001,66.4
0.7717,66.4
0.7718,66.4
0.7719,66.4
0.772,66.4
0.7721,66.4
0.7722,66.4
0.7723,66.4
0.7724000000000001,66.2
0.7725000000000001,66.4
0.7726000000000001,66.2
0.7727,66.4
0.7728,66.4
0.7729,66.4
0.773,66.4
0.7731,66.4
0.7732,66.4
0.7733,66.4
0.7734000000000001,66.2
0.7735000000000001,66.2
0.7736000000000001,66.2
0.7737,66.2
0.7738,66.2
0.7739,66.2
0.774,66.2
0.7741,66.2
0.7742,66.2
0.7743,66.2
0.7744000000000001,66.0
0.7745000000000001,66.0
0.7746000000000001,66.2
0.7747,66.4
0.7748,66.4
0.7749,66.4
0.775,66.0
0.7751,66.4
0.7752,66.0
0.7753,66.0
0.7754000000000001,66.4
0.7755000000000001,66.2
0.7756000000000001,66.2
0.7757000000000001,66.2
0.7758,66.2
0.7759,66.2
0.776,66.2
0.7761,66.2
0.7762,66.2
0.7763,66.0
0.7764000000000001,66.2
0.7765000000000001,66.2
0.7766000000000001,66.2
0.7767000000000001,66.0
0.7768,66.2
0.7769,66.2
0.777,66.0
0.7771,66.0
0.7772,66.2
0.7773,66.2
0.7774000000000001,66.2
0.7775000000000001,66.0
0.7776000000000001,66.0
0.7777000000000001,65.8
0.7778,66.2
0.7779,66.2
0.778,66.0
0.7781,66.0
0.7782,65.8
0.7783,66.0
0.7784000000000001,65.8
0.7785000000000001,66.0
0.7786000000000001,66.2
0.7787000000000001,66.0
0.7788,66.0
0.7789,66.0
0.779,66.0
0.7791,66.0
0.7792,66.0
0.7793,66.0
0.7794000000000001,65.8
0.7795000000000001,66.0
0.7796000000000001,66.0
0.7797000000000001,65.8
0.7798,65.8
0.7799,66.0
0.78,66.0
0.7801,65.6
0.7802,66.0
0.7803,65.8
0.7804,66.0
0.7805000000000001,66.0
0.7806000000000001,65.8
0.7807000000000001,65.8
0.7808,65.8
0.7809,66.0
0.781,65.8
0.7811,66.0
0.7812,65.8
0.7813,66.0
0.7814,66.0
0.7815000000000001,65.8
0.7816000000000001,65.8
0.7817000000000001,65.8
0.7818,65.8
0.7819,66.0
0.782,65.8
0.7821,66.0
0.7822,65.8
0.7823,65.8
0.7824,66.0
0.7825000000000001,65.8
0.7826000000000001,65.8
0.7827000000000001,65.6
0.7828,65.8
0.7829,65.8
0.783,65.8
0.7831,65.6
0.7832,65.8
0.7833,65.6
0.7834,65.8
0.7835000000000001,65.6
0.7836000000000001,65.8
0.7837000000000001,65.6
0.7838,65.6
0.7839,65.8
0.784,65.8
0.7841,65.6
0.7842,65.8
0.7843,65.6
0.7844,65.8
0.7845000000000001,65.6
0.7846000000000001,65.6
0.7847000000000001,65.8
0.7848,65.8
0.7849,65.6
0.785,65.8
0.7851,65.8
0.7852,65.6
0.7853,65.8
0.7854,65.6
0.7855000000000001,65.6
0.7856000000000001,65.6
0.7857000000000001,65.8
0.7858,65.8
0.7859,65.6
0.786,65.8
0.7861,65.8
0.7862,65.6
0.7863,65.4
0.7864,65.4
0.7865000000000001,65.8
0.7866000000000001,65.6
0.7867000000000001,65.4
0.7868,65.6
0.7869,65.6
0.787,65.8
0.7871,65.4
0.7872,65.6
0.7873,65.4
0.7874,65.8
0.7875000000000001,65.4
0.7876000000000001,65.6
0.7877000000000001,65.8
0.7878000000000001,65.8
0.7879,65.8
0.788,65.4
0.7881,65.6
0.7882,65.6
0.7883,65.2
0.7884,65.4
0.7885000000000001,65.4
0.7886000000000001,65.6
0.7887000000000001,65.4
0.7888000000000001,65.6
0.7889,65.4
0.789,65.2
0.7891,65.6
0.7892,65.6
0.7893,65.2
0.7894,65.2
0.7895000000000001,65.4
0.7896000000000001,65.4
0.7897000000000001,65.2
0.7898000000000001,65.4
0.7899,65.4
0.79,65.4
0.7901,65.2
0.7902,65.2
0.7903,65.4
0.7904,65.2
0.7905000000000001,65.0
0.7906000000000001,65.0
0.7907000000000001,65.2
0.7908000000000001,65.4
0.7909,65.2
0.791,65.6
0.7911,65.4
0.7912,65.2
0.7913,65.6
0.7914,65.2
0.7915000000000001,65.4
0.7916000000000001,65.4
0.7917000000000001,65.2
0.7918000000000001,65.4
0.7919,65.4
0.792,65.4
0.7921,65.4
0.7922,65.2
0.7923,65.2
0.7924,65.0
0.7925000000000001,65.2
0.7926000000000001,65.0
0.7927000000000001,65.4
0.7928000000000001,65.2
0.7929,65.2
0.793,65.2
0.7931,65.2
0.7932,65.0
0.7933,65.2
0.7934,65.0
0.7935,65.2
0.7936000000000001,65.2
0.7937000000000001,65.2
0.7938000000000001,65.2
0.7939,65.2
0.794,65.0
0.7941,65.2
0.7942,65.0
0.7943,65.0
0.7944,65.2
0.7945,65.4
0.7946000000000001,65.2
0.7947000000000001,65.2
0.7948000000000001,65.2
0.7949,65.0
0.795,65.0
0.7951,65.2
0.7952,65.2
0.7953,65.0
0.7954,65.2
0.7955,65.0
0.7956000000000001,65.2
0.7957000000000001,65.2
0.7958000000000001,65.2
0.7959,65.2
0.796,65.2
0.7961,65.0
0.7962,65.0
0.7963,65.0
0.7964,65.2
0.7965,64.8
0.7966000000000001,64.8
0.7967000000000001,65.0
0.7968000000000001,64.8
0.7969,65.0
0.797,65.0
0.7971,65.0
0.7972,65.2
0.7973,65.0
0.7974,65.2
0.7975,64.8
0.7976000000000001,65.0
0.7977000000000001,65.0
0.7978000000000001,65.0
0.7979,64.8
0.798,65.0
0.7981,65.0
0.7982,64.8
0.7983,64.8
0.7984,65.0
0.7985,65.0
0.7986000000000001,65.2
0.7987000000000001,65.0
0.7988000000000001,65.0
0.7989,65.0
0.799,65.0
0.7991,65.0
0.7992,64.8
0.7993,64.8
0.7994,65.0
0.7995,65.0
0.7996000000000001,64.8
0.7997000000000001,64.8
0.7998000000000001,64.8
0.7999,64.8
0.8,64.8
0.8001,64.8
0.8002,64.8
0.8003,65.0
0.8004,64.8
0.8005,64.8
0.8006000000000001,64.8
0.8007000000000001,64.8
0.8008000000000001,64.8
0.8009000000000001,65.0
0.801,64.6
0.8011,64.8
0.8012,64.8
0.8013,64.8
0.8014,65.0
0.8015,64.8
0.8016000000000001,64.6
0.8017000000000001,64.8
0.8018000000000001,64.8
0.8019000000000001,64.8
0.802,64.8
0.8021,64.6
0.8022,64.8
0.8023,64.6
0.8024,64.8
0.8025,64.6
0.8026000000000001,65.0
0.8027000000000001,64.8
0.8028000000000001,64.8
0.8029000000000001,64.6
0.803,65.0
0.8031,64.6
0.8032,64.8
0.8033,64.6
0.8034,64.8
0.8035,64.8
0.8036000000000001,64.8
0.8037000000000001,64.8
0.8038000000000001,64.8
0.8039000000000001,64.6
0.804,64.8
0.8041,64.6
0.8042,64.6
0.8043,64.8
0.8044,64.6
0.8045,64.8
0.8046000000000001,64.8
0.8047000000000001,64.6
0.8048000000000001,64.6
0.8049000000000001,64.8
0.805,64.6
0.8051,64.8
0.8052,64.6
0.8053,64.8
0.8054,64.8
0.8055,64.8
0.8056000000000001,64.6
0.8057000000000001,64.8
0.8058000000000001,64.8
0.8059000000000001,64.6
0.806,64.6
0.8061,64.6
0.8062,64.8
0.8063,64.6
0.8064,64.6
0.8065,64.6
0.8066,64.4
0.8067000000000001,64.6
0.8068000000000001,64.8
0.8069000000000001,64.6
0.807,64.6
0.8071,64.6
0.8072,64.8
0.8073,64.6
0.8074,64.4
0.8075,64.6
0.8076,64.8
0.8077000000000001,64.6
0.8078000000000001,64.6
0.8079000000000001,64.4
0.808,64.6
0.8081,64.4
0.8082,64.6
0.8083,64.6
0.8084,64.6
0.8085,64.6
0.8086,64.8
0.8087000000000001,64.6
0.8088000000000001,64.4
0.8089000000000001,64.4
0.809,64.4
0.8091,64.4
0.8092,64.4
0.8093,64.6
0.8094,64.4
0.8095,64.4
0.8096,64.6
0.8097000000000001,64.8
0.8098000000000001,64.4
0.8099000000000001,64.4
0.81,64.6
0.8101,64.4
0.8102,64.4
0.8103,64.2
0.8104,64.4
0.8105,64.4
0.8106,64.6
0.8107000000000001,64.8
0.8108000000000001,64.6
0.8109000000000001,64.4
0.811,64.8
0.8111,64.6
0.8112,64.4
0.8113,64.4
0.8114,64.6
0.8115,64.4
0.8116,64.4
0.8117000000000001,64.6
0.8118000000000001,64.4
0.8119000000000001,64.6
0.812,64.4
0.8121,64.4
0.8122,64.2
0.8123,64.2
0.8124,64.4
0.8125,64.6
0.8126,64.4
0.8127000000000001,64.4
0.8128000000000001,64.4
0.8129000000000001,64.4
0.8130000000000001,64.4
0.8131,64.4
0.8132,64.2
0.8133,64.2
0.8134,64.2
0.8135,64.2
0.8136,64.6
0.8137000000000001,64.4
0.8138000000000001,64.2
0.8139000000000001,64.4
0.8140000000000001,64.4
0.8141,64.2
0.8142,64.4
0.8143,64.4
0.8144,64.4
0.8145,64.4
0.8146,64.2
0.8147000000000001,64.4
0.8148000000000001,64.2
0.8149000000000001,64.2
0.8150000000000001,64.2
0.8151,64.2
0.8152,64.4
0.8153,64.4
0.8154,64.4
0.8155,64.2
0.8156,64.4
0.8157000000000001,64.4
0.8158000000000001,64.4
0.8159000000000001,64.4
0.8160000000000001,64.4
0.8161,64.2
0.8162,64.2
0.8163,64.2
0.8164,64.2
0.8165,64.2
0.8166,64.2
0.8167000000000001,64.4
0.8168000000000001,64.2
0.8169000000000001,64.2
0.8170000000000001,64.2
0.8171,64.4
0.8172,64.2
0.8173,64.2
0.8174,64.2
0.8175,64.2
0.8176,64.2
0.8177000000000001,64.2
0.8178000000000001,64.2
0.8179000000000001,64.2
0.8180000000000001,64.2
0.8181,64.2
0.8182,64.4
0.8183,64.4
0.8184,64.2
0.8185,64.2
0.8186,64.4
0.8187000000000001,64.2
0.8188000000000001,64.0
0.8189000000000001,64.2
0.8190000000000001,64.0
0.8191,64.2
0.8192,64.2
0.8193,64.2
0.8194,64.0
0.8195,64.2
0.8196,64.4
0.8197,64.0
0.8198000000000001,64.0
0.8199000000000001,64.2
0.8200000000000001,64.0
0.8201,64.4
0.8202,64.0
0.8203,64.2
0.8204,64.0
0.8205,64.4
0.8206,64.4
0.8207,64.2
0.8208000000000001,64.2
0.8209000000000001,64.2
0.8210000000000001,64.2
0.8211,64.2
0.8212,64.2
0.8213,64.4
0.8214,64.0
0.8215,64.2
0.8216,64.2
0.8217,64.2
0.8218000000000001,64.2
0.8219000000000001,64.2
0.8220000000000001,64.2
0.8221,64.2
0.8222,64.0
0.8223,64.2
0.8224,64.2
0.8225,64.2
0.8226,64.0
0.8227,64.2
0.8228000000000001,64.2
0.8229000000000001,64.2
0.8230000000000001,64.2
0.8231,64.0
0.8232,64.2
0.8233,64.2
0.8234,64.0
0.8235,64.2
0.8236,64.2
0.8237,64.0
0.8238000000000001,64.2
0.8239000000000001,64.0
0.8240000000000001,64.0
0.8241,64.2
0.8242,64.2
0.8243,64.2
0.8244,64.0
0.8245,64.0
0.8246,64.2
0.8247,64.2
0.8248000000000001,64.2
0.8249000000000001,64.2
0.8250000000000001,63.8
0.8251000000000001,64.2
0.8252,64.2
0.8253,64.2
0.8254,64.2
0.8255,64.2
0.8256,64.2
0.8257,64.2
0.8258000000000001,64.2
0.8259000000000001,64.2
0.8260000000000001,64.0
0.8261000000000001,64.2
0.8262,64.0
0.8263,64.0
0.8264,64.0
0.8265,64.2
0.8266,64.0
0.8267,64.2
0.8268000000000001,64.2
0.8269000000000001,64.2
0.8270000000000001,64.0
0.8271000000000001,64.2
0.8272,64.2
0.8273,64.0
0.8274,64.2
0.8275,64.2
0.8276,64.0
0.8277,63.8
0.8278000000000001,64.2
0.8279000000000001,64.0
0.8280000000000001,64.0
0.8281000000000001,64.2
0.8282,64.2
0.8283,64.0
0.8284,64.2
0.8285,64.0
0.8286,64.0
0.8287,64.0
0.8288000000000001,64.2
0.8289000000000001,64.0
0.8290000000000001,64.0
0.8291000000000001,64.2
0.8292,63.8
0.8293,64.0
0.8294,64.0
0.8295,64.2
0.8296,64.0
0.8297,64.0
0.8298000000000001,64.0
0.8299000000000001,63.8
0.8300000000000001,64.2
0.8301000000000001,64.0
0.8302,64.0
0.8303,63.8
0.8304,64.0
0.8305,64.2
0.8306,64.0
0.8307,64.0
0.8308000000000001,64.2
0.8309000000000001,64.2
0.8310000000000001,63.8
0.8311000000000001,64.0
0.8312,64.0
0.8313,63.8
0.8314,64.0
0.8315,64.2
0.8316,64.2
0.8317,64.2
0.8318000000000001,64.0
0.8319000000000001,64.0
0.8320000000000001,64.0
0.8321000000000001,64.0
0.8322,64.0
0.8323,64.2
0.8324,64.2
0.8325,63.8
0.8326,64.0
0.8327,64.0
0.8328,64.0
0.8329000000000001,64.0
0.8330000000000001,63.8
0.8331000000000001,64.0
0.8332,63.8
0.8333,63.6
0.8334,64.2
0.8335,64.2
0.8336,63.8
0.8337,64.0
0.8338,64.0
0.8339000000000001,64.0
0.8340000000000001,64.0
0.8341000000000001,64.0
0.8342,64.0
0.8343,64.0
0.8344,64.0
0.8345,64.2
0.8346,64.0
0.8347,63.8
0.8348,64.2
0.8349000000000001,64.0
0.8350000000000001,63.8
0.8351000000000001,64.0
0.8352,64.0
0.8353,64.2
0.8354,64.2
0.8355,64.2
0.8356,64.2
0.8357,64.0
0.8358,64.2
0.8359000000000001,64.0
0.8360000000000001,64.2
0.8361000000000001,63.8
0.8362,63.8
0.8363,63.8
0.8364,63.8
0.8365,63.8
0.8366,64.2
0.8367,64.0
0.8368,63.8
0.8369000000000001,64.0
0.8370000000000001,64.2
0.8371000000000001,63.8
0.8372,64.0
0.8373,63.8
0.8374,64.2
0.8375,63.8
0.8376,63.8
0.8377,64.0
0.8378,64.0
0.8379000000000001,63.8
0.8380000000000001,64.2
0.8381000000000001,63.8
0.8382000000000001,64.2
0.8383,64.2
0.8384,63.8
0.8385,63.8
0.8386,64.0
0.8387,63.8
0.8388,64.0
0.8389000000000001,64.0
0.8390000000000001,64.2
0.8391000000000001,63.8
0.8392000000000001,63.6
0.8393,63.8
0.8394,64.0
0.8395,63.6
0.8396,64.0
0.8397,63.8
0.8398,63.8
0.8399000000000001,64.0
0.8400000000000001,63.6
0.8401000000000001,63.8
0.8402000000000001,63.8
0.8403,63.8
0.8404,63.8
0.8405,63.8
0.8406,64.0
0.8407,63.8
0.8408,63.8
0.8409000000000001,63.8
0.8410000000000001,64.2
0.8411000000000001,63.8
0.8412000000000001,63.6
0.8413,64.0
0.8414,63.8
0.8415,63.8
0.8416,64.0
0.8417,63.8
0.8418,64.0
0.8419000000000001,63.8
0.8420000000000001,63.8
0.8421000000000001,63.6
0.8422000000000001,64.0
0.8423,64.2
0.8424,63.8
0.8425,63.8
0.8426,64.0
0.8427,63.8
0.8428,64.0
0.8429000000000001,63.8
0.8430000000000001,63.8
0.8431000000000001,63.8
0.8432000000000001,63.8
0.8433,63.8
0.8434,64.2
0.8435,63.8
0.8436,64.0
0.8437,63.8
0.8438,64.0
0.8439000000000001,64.0
0.8440000000000001,64.0
0.8441000000000001,64.0
0.8442000000000001,64.0
0.8443,63.8
0.8444,64.0
0.8445,63.8
0.8446,63.8
0.8447,64.0
0.8448,63.8
0.8449000000000001,64.0
0.8450000000000001,64.2
0.8451000000000001,64.0
0.8452000000000001,63.8
0.8453,64.0
0.8454,64.0
0.8455,63.8
0.8456,63.8
0.8457,64.2
0.8458,63.8
0.8459,64.0
0.8460000000000001,63.8
0.8461000000000001,63.8
0.8462000000000001,63.8
0.8463,64.0
0.8464,64.0
0.8465,64.0
0.8466,64.0
0.8467,63.8
0.8468,64.0
0.8469,63.8
0.8470000000000001,63.8
0.8471000000000001,64.0
0.8472000000000001,64.0
0.8473,64.0
0.8474,63.8
0.8475,63.6
0.8476,64.0
0.8477,63.8
0.8478,63.8
0.8479,64.0
0.8480000000000001,64.0
0.8481000000000001,64.0
0.8482000000000001,63.8
0.8483,63.8
0.8484,64.0
0.8485,63.8
0.8486,64.0
0.8487,63.8
0.8488,63.8
0.8489,63.8
0.8490000000000001,63.8
0.8491000000000001,63.8
0.8492000000000001,64.0
0.8493,64.0
0.8494,63.6
0.8495,64.0
0.8496,63.8
0.8497,63.8
0.8498,63.8
0.8499,63.8
0.8500000000000001,64.0
0.8501000000000001,63.8
0.8502000000000001,64.0
0.8503000000000001,64.0
0.8504,64.0
0.8505,63.8
0.8506,64.0
0.8507,64.0
0.8508,63.8
0.8509,64.2
0.8510000000000001,64.0
0.8511000000000001,63.8
0.8512000000000001,64.0
0.8513000000000001,64.0
0.8514,64.0
0.8515,64.0
0.8516,64.0
0.8517,64.2
0.8518,64.0
0.8519,63.6
0.8520000000000001,63.6
0.8521000000000001,63.8
0.8522000000000001,64.0
0.8523000000000001,63.8
0.8524,63.8
0.8525,64.0
0.8526,63.8
0.8527,64.0
0.8528,63.6
0.8529,64.0
0.8530000000000001,64.0
0.8531000000000001,63.8
0.8532000000000001,64.2
0.8533000000000001,63.8
0.8534,64.0
0.8535,63.8
0.8536,64.0
0.8537,64.0
0.8538,64.0
0.8539,64.2
0.8540000000000001,64.0
0.8541000000000001,64.0
0.8542000000000001,63.8
0.8543000000000001,64.2
0.8544,64.0
0.8545,63.8
0.8546,64.0
0.8547,64.0
0.8548,64.0
0.8549,63.8
0.8550000000000001,64.0
0.8551000000000001,64.0
0.8552000000000001,64.0
0.8553000000000001,64.0
0.8554,64.0
0.8555,63.8
0.8556,64.0
0.8557,64.0
0.8558,64.0
0.8559,63.8
0.8560000000000001,64.0
0.8561000000000001,64.0
0.8562000000000001,64.0
0.8563000000000001,64.0
0.8564,64.0
0.8565,64.0
0.8566,64.2
0.8567,64.0
0.8568,63.8
0.8569,63.8
0.8570000000000001,64.0
0.8571000000000001,64.0
0.8572000000000001,64.0
0.8573000000000001,64.0
0.8574,64.0
0.8575,64.2
0.8576,64.0
0.8577,63.8
0.8578,64.2
0.8579,64.0
0.8580000000000001,64.2
0.8581000000000001,64.0
0.8582000000000001,64.0
0.8583000000000001,64.0
0.8584,63.8
0.8585,64.2
0.8586,64.0
0.8587,63.8
0.8588,64.0
0.8589,64.0
0.859,64.0
0.8591000000000001,64.0
0.8592000000000001,64.0
0.8593000000000001,64.0
0.8594,64.0
0.8595,64.0
0.8596,64.0
0.8597,64.0
0.8598,64.0
0.8599,63.8
0.86,64.0
0.8601000000000001,64.0
0.8602000000000001,64.0
0.8603000000000001,64.0
0.8604,64.0
0.8605,64.2
0.8606,64.2
0.8607,63.8
0.8608,64.0
0.8609,64.2
0.861,64.0
0.8611000000000001,64.2
0.8612000000000001,64.0
0.8613000000000001,64.2
0.8614,64.2
0.8615,63.8
0.8616,64.0
0.8617,64.0
0.8618,64.0
0.8619,64.0
0.862,64.2
0.8621000000000001,64.2
0.8622000000000001,64.2
0.8623000000000001,64.0
0.8624,64.2
0.8625,64.0
0.8626,64.4
0.8627,64.0
0.8628,64.2
0.8629,64.0
0.863,63.8
0.8631000000000001,64.0
0.8632000000000001,64.0
0.8633000000000001,64.0
0.8634000000000001,64.2
0.8635,64.0
0.8636,64.0
0.8637,64.2
0.8638,64.2
0.8639,64.2
0.864,64.4
0.8641000000000001,64.0
0.8642000000000001,64.0
0.8643000000000001,64.2
0.8644000000000001,64.0
0.8645,64.2
0.8646,63.8
0.8647,64.2
0.8648,64.0
0.8649,64.2
0.865,64.2
0.8651000000000001,64.2
0.8652000000000001,64.2
0.8653000000000001,64.2
0.8654000000000001,64.2
0.8655,64.2
0.8656,64.0
0.8657,64.2
0.8658,64.0
0.8659,64.0
0.866,64.0
0.8661000000000001,64.0
0.8662000000000001,64.2
0.8663000000000001,64.2
0.8664000000000001,64.2
0.8665,64.2
0.8666,64.2
0.8667,64.2
0.8668,64.0
0.8669,64.2
0.867,64.2
0.8671000000000001,64.2
0.8672000000000001,64.0
0.8673000000000001,64.0
0.8674000000000001,64.2
0.8675,64.0
0.8676,64.2
0.8677,64.2
0.8678,64.2
0.8679,64.2
0.868,64.2
0.8681000000000001,64.0
0.8682000000000001,64.2
0.8683000000000001,64.0
0.8684000000000001,64.2
0.8685,64.0
0.8686,64.0
0.8687,64.2
0.8688,64.2
0.8689,64.0
0.869,64.2
0.8691000000000001,64.2
0.8692000000000001,64.0
0.8693000000000001,64.0
0.8694000000000001,64.0
0.8695,64.2
0.8696,64.4
0.8697,64.0
0.8698,64.0
0.8699,64.2
0.87,64.2
0.8701000000000001,64.2
0.8702000000000001,64.4
0.8703000000000001,64.0
0.8704000000000001,64.2
0.8705,64.4
0.8706,64.0
0.8707,64.2
0.8708,64.4
0.8709,64.2
0.871,64.2
0.8711000000000001,64.2
0.8712000000000001,64.2
0.8713000000000001,64.4
0.8714000000000001,64.0
0.8715,64.2
0.8716,64.0
0.8717,64.2
0.8718,64.0
0.8719,64.2
0.872,64.2
0.8721,64.2
0.8722000000000001,64.0
0.8723000000000001,64.2
0.8724000000000001,64.0
0.8725,64.2
0.8726,64.0
0.8727,64.2
0.8728,64.4
0.8729,64.2
0.873,64.4
0.8731,64.2
0.8732000000000001,64.2
0.8733000000000001,64.2
0.8734000000000001,64.2
0.8735,64.0
0.8736,64.4
0.8737,64.2
0.8738,64.4
0.8739,64.2
0.874,64.0
0.8741,64.2
0.8742000000000001,64.2
0.8743000000000001,64.0
0.8744000000000001,64.4
0.8745,64.2
0.8746,64.4
0.8747,64.2
0.8748,64.2
0.8749,64.2
0.875,64.2
0.8751,64.4
0.8752000000000001,64.4
0.8753000000000001,64.4
0.8754000000000001,64.4
0.8755000000000001,64.2
0.8756,64.4
0.8757,64.2
0.8758,64.2
0.8759,64.2
0.876,64.2
0.8761,64.4
0.8762000000000001,64.2
0.8763000000000001,64.2
0.8764000000000001,64.4
0.8765000000000001,64.2
0.8766,64.4
0.8767,64.2
0.8768,64.2
0.8769,64.4
0.877,64.2
0.8771,64.2
0.8772000000000001,64.2
0.8773000000000001,64.2
0.8774000000000001,64.0
0.8775000000000001,64.2
0.8776,64.4
0.8777,64.2
0.8778,64.4
0.8779,64.4
0.878,64.4
0.8781,64.2
0.8782000000000001,64.4
0.8783000000000001,64.4
0.8784000000000001,64.0
0.8785000000000001,64.4
0.8786,64.4
0.8787,64.2
0.8788,64.2
0.8789,64.4
0.879,64.6
0.8791,64.2
0.8792000000000001,64.2
0.8793000000000001,64.2
0.8794000000000001,64.4
0.8795000000000001,64.4
0.8796,64.2
0.8797,64.0
0.8798,64.4
0.8799,64.4
0.88,64.4
0.8801,64.4
0.8802000000000001,64.4
0.8803000000000001,64.4
0.8804000000000001,64.4
0.8805000000000001,64.4
0.8806,64.6
0.8807,64.4
0.8808,64.2
0.8809,64.4
0.881,64.4
0.8811,64.4
0.8812000000000001,64.4
0.8813000000000001,64.4
0.8814000000000001,64.6
0.8815000000000001,64.4
0.8816,64.4
0.8817,64.4
0.8818,64.6
0.8819,64.6
0.882,64.4
0.8821,64.4
0.8822000000000001,64.6
0.8823000000000001,64.4
0.8824000000000001,64.6
0.8825000000000001,64.2
0.8826,64.6
0.8827,64.4
0.8828,64.4
0.8829,64.6
0.883,64.4
0.8831,64.4
0.8832000000000001,64.4
0.8833000000000001,64.4
0.8834000000000001,64.2
0.8835000000000001,64.6
0.8836,64.4
0.8837,64.6
0.8838,64.6
0.8839,64.4
0.884,64.6
0.8841,64.4
0.8842000000000001,64.4
0.8843000000000001,64.6
0.8844000000000001,64.4
0.8845000000000001,64.4
0.8846,64.6
0.8847,64.6
0.8848,64.6
0.8849,64.6
0.885,64.6
0.8851,64.6
0.8852000000000001,64.4
0.8853000000000001,64.4
0.8854000000000001,64.4
0.8855000000000001,64.4
0.8856,64.2
0.8857,64.4
0.8858,64.6
0.8859,64.4
0.886,64.6
0.8861,64.6
0.8862,64.6
0.8863000000000001,64.6
0.8864000000000001,64.4
0.8865000000000001,64.6
0.8866,64.6
0.8867,64.4
0.8868,64.6
0.8869,64.8
0.887,64.6
0.8871,64.4
0.8872,64.6
0.8873000000000001,64.4
0.8874000000000001,64.6
0.8875000000000001,64.8
0.8876000000000001,64.6
0.8877,64.6
0.8878,64.6
0.8879,64.6
0.888,64.4
0.8881,64.6
0.8882,64.6
0.8883000000000001,64.6
0.8884000000000001,64.6
0.8885000000000001,64.6
0.8886000000000001,64.4
0.8887,64.4
0.8888,64.6
0.8889,64.8
0.889,64.4
0.8891,64.6
0.8892,64.6
0.8893000000000001,64.6
0.8894000000000001,64.8
0.8895000000000001,64.4
0.8896000000000001,64.6
0.8897,64.6
0.8898,65.0
0.8899,64.6
0.89,64.6
0.8901,64.6
0.8902,64.8
0.8903000000000001,64.6
0.8904000000000001,64.6
0.8905000000000001,64.6
0.8906000000000001,64.6
0.8907,64.4
0.8908,64.8
0.8909,64.8
0.891,64.8
0.8911,64.8
0.8912,64.6
0.8913000000000001,64.8
0.8914000000000001,64.6
0.8915000000000001,64.6
0.8916000000000001,64.6
0.8917,65.0
0.8918,64.6
0.8919,64.6
0.892,64.4
0.8921,65.0
0.8922,64.6
0.8923000000000001,64.8
0.8924000000000001,64.6
0.8925000000000001,64.8
0.8926000000000001,64.6
0.8927,64.8
0.8928,64.8
0.8929,64.8
0.893,64.6
0.8931,64.6
0.8932,64.6
0.8933000000000001,64.8
0.8934000000000001,64.8
0.8935000000000001,64.8
0.8936000000000001,64.8
0.8937,64.8
0.8938,64.4
0.8939,64.8
0.894,64.8
0.8941,64.6
0.8942,65.0
0.8943000000000001,64.6
0.8944000000000001,64.8
0.8945000000000001,64.8
0.8946000000000001,64.8
0.8947,64.8
0.8948,64.8
0.8949,64.8
0.895,65.0
0.8951,64.8
0.8952,64.8
0.8953000000000001,64.8
0.8954000000000001,65.0
0.8955000000000001,64.8
0.8956000000000001,64.8
0.8957,64.8
0.8958,64.8
0.8959,64.8
0.896,64.8
0.8961,64.8
0.8962,65.0
0.8963000000000001,65.0
0.8964000000000001,65.0
0.8965000000000001,64.8
0.8966000000000001,64.8
0.8967,64.8
0.8968,65.0
0.8969,64.8
0.897,64.8
0.8971,64.8
0.8972,64.8
0.8973000000000001,64.8
0.8974000000000001,65.0
0.8975000000000001,65.0
0.8976000000000001,64.8
0.8977,65.0
0.8978,65.0
0.8979,64.8
0.898,65.0
0.8981,65.0
0.8982,64.8
0.8983000000000001,64.8
0.8984000000000001,65.0
0.8985000000000001,64.8
0.8986000000000001,64.8
0.8987,65.0
0.8988,64.8
0.8989,64.8
0.899,64.6
0.8991,64.8
0.8992,65.0
0.8993,65.2
0.8994000000000001,64.8
0.8995000000000001,64.8
0.8996000000000001,64.8
0.8997,65.0
0.8998,65.0
0.8999,65.0
0.9,65.0
0.9001,65.0
0.9002,65.0
0.9003,65.0
0.9004000000000001,65.2
0.9005000000000001,65.2
0.9006000000000001,65.0
0.9007000000000001,64.8
0.9008,65.0
0.9009,65.0
0.901,65.2
0.9011,64.8
0.9012,65.0
0.9013,64.8
0.9014000000000001,64.8
0.9015000000000001,65.0
0.9016000000000001,65.2
0.9017000000000001,65.0
0.9018,65.0
0.9019,65.0
0.902,65.0
0.9021,65.0
0.9022,65.2
0.9023,65.2
0.9024000000000001,65.0
0.9025000000000001,65.0
0.9026000000000001,65.0
0.9027000000000001,65.0
0.9028,65.0
0.9029,65.2
0.903,65.2
0.9031,65.0
0.9032,65.2
0.9033,65.2
0.9034000000000001,65.2
0.9035000000000001,65.2
0.9036000000000001,65.2
0.9037000000000001,65.0
0.9038,65.2
0.9039,65.2
0.904,65.2
0.9041,65.2
0.9042,65.0
0.9043,65.0
0.9044000000000001,65.2
0.9045000000000001,65.2
0.9046000000000001,65.0
0.9047000000000001,65.2
0.9048,65.2
0.9049,65.2
0.905,65.4
0.9051,65.2
0.9052,65.2
0.9053,65.2
0.9054000000000001,65.2
0.9055000000000001,65.2
0.9056000000000001,65.0
0.9057000000000001,65.2
0.9058,65.4
0.9059,65.4
0.906,65.2
0.9061,65.2
0.9062,65.4
0.9063,65.2
0.9064000000000001,65.2
0.9065000000000001,65.4
0.9066000000000001,65.2
0.9067000000000001,65.2
0.9068,65.2
0.9069,65.2
0.907,65.4
0.9071,65.2
0.9072,65.2
0.9073,65.4
0.9074000000000001,65.4
0.9075000000000001,65.4
0.9076000000000001,65.4
0.9077000000000001,65.2
0.9078,65.4
0.9079,65.2
0.908,65.4
0.9081,65.2
0.9082,65.0
0.9083,65.4
0.9084000000000001,65.2
0.9085000000000001,65.2
0.9086000000000001,65.2
0.9087000000000001,65.4
0.9088,65.2
0.9089,65.2
0.909,65.2
0.9091,65.2
0.9092,65.4
0.9093,65.2
0.9094000000000001,65.2
0.9095000000000001,65.2
0.9096000000000001,65.4
0.9097000000000001,65.4
0.9098,65.2
0.9099,65.4
0.91,65.4
0.9101,65.4
0.9102,65.2
0.9103,65.4
0.9104000000000001,65.4
0.9105000000000001,65.2
0.9106000000000001,65.4
0.9107000000000001,65.4
0.9108,65.4
0.9109,65.4
0.911,65.2
0.9111,65.6
0.9112,65.6
0.9113,65.4
0.9114000000000001,65.4
0.9115000000000001,65.8
0.9116000000000001,65.4
0.9117000000000001,65.4
0.9118,65.6
0.9119,65.4
0.912,65.2
0.9121,65.8
0.9122,65.6
0.9123,65.6
0.9124,65.4
0.9125000000000001,65.6
0.9126000000000001,65.6
0.9127000000000001,65.4
0.9128000000000001,65.4
0.9129,65.8
0.913,65.4
0.9131,65.4
0.9132,65.6
0.9133,65.6
0.9134,65.8
0.9135000000000001,65.6
0.9136000000000001,65.6
0.9137000000000001,65.6
0.9138000000000001,65.8
0.9139,65.4
0.914,65.6
0.9141,65.4
0.9142,65.6
0.9143,65.6
0.9144,65.6
0.9145000000000001,65.8
0.9146000000000001,65.8
0.9147000000000001,65.6
0.9148000000000001,65.8
0.9149,65.8
0.915,65.8
0.9151,65.6
0.9152,65.8
0.9153,65.4
0.9154,65.6
0.9155000000000001,65.6
0.9156000000000001,65.6
0.9157000000000001,65.6
0.9158000000000001,65.8
0.9159,66.0
0.916,65.8
0.9161,65.8
0.9162,65.8
0.9163,65.6
0.9164,65.8
0.9165000000000001,65.6
0.9166000000000001,65.8
0.9167000000000001,65.6
0.9168000000000001,65.6
0.9169,65.8
0.917,65.6
0.9171,65.8
0.9172,66.0
0.9173,65.8
0.9174,65.8
0.9175000000000001,65.8
0.9176000000000001,65.6
0.9177000000000001,65.6
0.9178000000000001,65.6
0.9179,65.8
0.918,65.8
0.9181,65.6
0.9182,66.0
0.9183,65.8
0.9184,65.6
0.9185000000000001,66.0
0.9186000000000001,65.8
0.9187000000000001,66.0
0.9188000000000001,65.8
0.9189,65.6
0.919,65.8
0.9191,66.0
0.9192,65.8
0.9193,65.8
0.9194,65.8
0.9195000000000001,65.8
0.9196000000000001,65.8
0.9197000000000001,66.0
0.9198000000000001,66.0
0.9199,66.0
0.92,66.0
0.9201,65.8
0.9202,65.8
0.9203,66.0
0.9204,65.8
0.9205000000000001,66.0
0.9206000000000001,66.0
0.9207000000000001,66.0
0.9208000000000001,65.8
0.9209,65.8
0.921,66.0
0.9211,65.8
0.9212,65.8
0.9213,65.8
0.9214,66.0
0.9215000000000001,66.0
0.9216000000000001,65.8
0.9217000000000001,65.6
0.9218000000000001,66.0
0.9219,65.8
0.922,66.0
0.9221,65.8
0.9222,66.0
0.9223,65.8
0.9224,66.0
0.9225000000000001,65.8
0.9226000000000001,66.0
0.9227000000000001,66.0
0.9228000000000001,66.0
0.9229,66.0
0.923,66.0
0.9231,66.0
0.9232,66.2
0.9233,66.2
0.9234,66.0
0.9235000000000001,66.0
0.9236000000000001,66.0
0.9237000000000001,66.0
0.9238000000000001,66.0
0.9239,66.2
0.924,66.0
0.9241,66.0
0.9242,66.0
0.9243,66.0
0.9244,66.0
0.9245000000000001,66.2
0.9246000000000001,66.0
0.9247000000000001,66.2
0.9248000000000001,66.2
0.9249,66.2
0.925,66.0
0.9251,66.2
0.9252,66.2
0.9253,65.8
0.9254,66.0
0.9255,66.0
0.9256000000000001,66.0
0.9257000000000001,66.2
0.9258000000000001,66.2
0.9259000000000001,66.2
0.926,66.2
0.9261,66.2
0.9262,66.2
0.9263,66.4
0.9264,66.2
0.9265,66.2
0.9266000000000001,66.2
0.9267000000000001,66.2
0.9268000000000001,66.2
0.9269000000000001,66.0
0.927,66.2
0.9271,66.4
0.9272,66.4
0.9273,66.4
0.9274,66.4
0.9275,66.2
0.9276000000000001,66.2
0.9277000000000001,66.2
0.9278000000000001,66.2
0.9279000000000001,66.2
0.928,66.2
0.9281,66.2
0.9282,66.0
0.9283,66.2
0.9284,66.4
0.9285,66.4
0.9286000000000001,66.0
0.9287000000000001,66.2
0.9288000000000001,66.2
0.9289000000000001,66.2
0.929,66.4
0.9291,66.2
0.9292,66.2
0.9293,66.2
0.9294,66.4
0.9295,66.4
0.9296000000000001,66.4
0.9297000000000001,66.2
0.9298000000000001,66.4
0.9299000000000001,66.4
0.93,66.4
0.9301,66.4
0.9302,66.4
0.9303,66.6
0.9304,66.4
0.9305,66.4
0.9306000000000001,66.4
0.9307000000000001,66.4
0.9308000000000001,66.4
0.9309000000000001,66.4
0.931,66.4
0.9311,66.4
0.9312,66.4
0.9313,66.6
0.9314,66.6
0.9315,66.4
0.9316000000000001,66.4
0.9317000000000001,66.4
0.9318000000000001,66.4
0.9319000000000001,66.6
0.932,66.4
0.9321,66.4
0.9322,66.6
0.9323,66.4
0.9324,66.6
0.9325,66.4
0.9326000000000001,66.6
0.9327000000000001,66.4
0.9328000000000001,66.6
0.9329000000000001,66.4
0.933,66.4
0.9331,66.6
0.9332,66.6
0.9333,66.6
0.9334,66.4
0.9335,66.4
0.9336000000000001,66.4
0.9337000000000001,66.6
0.9338000000000001,66.8
0.9339000000000001,66.6
0.934,66.4
0.9341,66.4
0.9342,66.6
0.9343,66.6
0.9344,66.6
0.9345,66.6
0.9346000000000001,66.6
0.9347000000000001,66.6
0.9348000000000001,66.6
0.9349000000000001,66.8
0.935,66.6
0.9351,66.8
0.9352,66.6
0.9353,66.8
0.9354,66.6
0.9355,66.8
0.9356000000000001,66.8
0.9357000000000001,66.6
0.9358000000000001,66.8
0.9359000000000001,66.4
0.936,66.8
0.9361,66.8
0.9362,66.8
0.9363,66.8
0.9364,66.8
0.9365,66.6
0.9366000000000001,66.8
0.9367000000000001,66.8
0.9368000000000001,66.8
0.9369000000000001,66.8
0.937,66.8
0.9371,66.8
0.9372,66.8
0.9373,66.6
0.9374,66.8
0.9375,66.6
0.9376000000000001,66.8
0.9377000000000001,66.8
0.9378000000000001,66.6
0.9379000000000001,66.8
0.9380000000000001,67.0
0.9381,66.8
0.9382,66.8
0.9383,66.8
0.9384,66.8
0.9385,66.8
0.9386,66.8
0.9387000000000001,66.8
0.9388000000000001,66.8
0.9389000000000001,66.8
0.9390000000000001,66.8
0.9391,66.8
0.9392,66.8
0.9393,67.0
0.9394,67.0
0.9395,67.0
0.9396,66.8
0.9397000000000001,67.0
0.9398000000000001,67.0
0.9399000000000001,67.0
0.9400000000000001,67.0
0.9401,67.0
0.9402,67.0
0.9403,67.0
0.9404,67.0
0.9405,67.2
0.9406,66.8
0.9407000000000001,67.0
0.9408000000000001,67.0
0.9409000000000001,67.0
0.9410000000000001,67.0
0.9411,66.8
0.9412,67.0
0.9413,67.2
0.9414,67.0
0.9415,67.0
0.9416,67.0
0.9417000000000001,67.0
0.9418000000000001,67.0
0.9419000000000001,67.2
0.9420000000000001,67.0
0.9421,67.2
0.9422,67.0
0.9423,67.2
0.9424,67.0
0.9425,67.0
0.9426,67.2
0.9427000000000001,67.2
0.9428000000000001,67.0
0.9429000000000001,67.2
0.9430000000000001,67.2
0.9431,67.4
0.9432,67.0
0.9433,67.2
0.9434,67.0
0.9435,67.2
0.9436,67.2
0.9437000000000001,67.2
0.9438000000000001,67.2
0.9439000000000001,67.0
0.9440000000000001,67.2
0.9441,67.2
0.9442,67.2
0.9443,67.2
0.9444,67.2
0.9445,67.2
0.9446,67.2
0.9447000000000001,67.2
0.9448000000000001,67.4
0.9449000000000001,67.2
0.9450000000000001,67.2
0.9451,67.2
0.9452,67.2
0.9453,67.2
0.9454,67.4
0.9455,67.2
0.9456,67.2
0.9457000000000001,67.2
0.9458000000000001,67.2
0.9459000000000001,67.4
0.9460000000000001,67.2
0.9461,67.2
0.9462,67.2
0.9463,67.4
0.9464,67.4
0.9465,67.2
0.9466,67.4
0.9467000000000001,67.2
0.9468000000000001,67.4
0.9469000000000001,67.2
0.9470000000000001,67.4
0.9471,67.4
0.9472,67.2
0.9473,67.4
0.9474,67.2
0.9475,67.4
0.9476,67.4
0.9477000000000001,67.4
0.9478000000000001,67.4
0.9479000000000001,67.4
0.9480000000000001,67.6
0.9481,67.2
0.9482,67.4
0.9483,67.4
0.9484,67.4
0.9485,67.4
0.9486,67.4
0.9487000000000001,67.4
0.9488000000000001,67.6
0.9489000000000001,67.4
0.9490000000000001,67.6
0.9491,67.4
0.9492,67.6
0.9493,67.6
0.9494,67.4
0.9495,67.6
0.9496,67.6
0.9497000000000001,67.4
0.9498000000000001,67.4
0.9499000000000001,67.6
0.9500000000000001,67.6
0.9501000000000001,67.4
0.9502,67.6
0.9503,67.6
0.9504,67.4
0.9505,67.6
0.9506,67.6
0.9507000000000001,67.6
0.9508000000000001,67.4
0.9509000000000001,67.6
0.9510000000000001,67.6
0.9511000000000001,67.6
0.9512,67.6
0.9513,67.6
0.9514,67.8
0.9515,67.6
0.9516,67.6
0.9517,67.6
0.9518000000000001,67.6
0.9519000000000001,67.8
0.9520000000000001,67.6
0.9521000000000001,67.6
0.9522,67.6
0.9523,67.8
0.9524,67.8
0.9525,67.8
0.9526,68.0
0.9527,67.8
0.9528000000000001,67.8
0.9529000000000001,67.8
0.9530000000000001,67.8
0.9531000000000001,67.6
0.9532,67.6
0.9533,67.6
0.9534,67.8
0.9535,67.8
0.9536,67.8
0.9537,67.6
0.9538000000000001,67.6
0.9539000000000001,67.8
0.9540000000000001,67.8
0.9541000000000001,67.8
0.9542,67.8
0.9543,68.0
0.9544,67.8
0.9545,67.8
0.9546,67.8
0.9547,67.8
0.9548000000000001,68.0
0.9549000000000001,67.8
0.9550000000000001,67.8
0.9551000000000001,67.8
0.9552,67.8
0.9553,68.0
0.9554,67.8
0.9555,68.0
0.9556,68.0
0.9557,68.0
0.9558000000000001,68.0
0.9559000000000001,67.8
0.9560000000000001,68.0
0.9561000000000001,68.0
0.9562,68.0
0.9563,67.8
0.9564,67.8
0.9565,68.0
0.9566,67.8
0.9567,68.0
0.9568000000000001,68.0
0.9569000000000001,68.0
0.9570000000000001,68.0
0.9571000000000001,68.0
0.9572,68.0
0.9573,67.8
0.9574,68.0
0.9575,68.2
0.9576,68.0
0.9577,68.0
0.9578000000000001,68.2
0.9579000000000001,68.2
0.9580000000000001,68.0
0.9581000000000001,68.0
0.9582,68.2
0.9583,68.0
0.9584,68.0
0.9585,68.0
0.9586,68.2
0.9587,68.2
0.9588000000000001,67.8
0.9589000000000001,68.2
0.9590000000000001,68.0
0.9591000000000001,68.0
0.9592,68.0
0.9593,68.2
0.9594,68.0
0.9595,68.0
0.9596,68.2
0.9597,68.0
0.9598000000000001,68.2
0.9599000000000001,68.2
0.9600000000000001,68.2
0.9601000000000001,68.2
0.9602,68.2
0.9603,68.2
0.9604,68.0
0.9605,68.2
0.9606,68.2
0.9607,68.0
0.9608000000000001,68.4
0.9609000000000001,68.4
0.9610000000000001,68.4
0.9611000000000001,68.2
0.9612,68.2
0.9613,68.2
0.9614,68.4
0.9615,68.2
0.9616,68.4
0.9617,68.2
0.9618000000000001,68.4
0.9619000000000001,68.4
0.9620000000000001,68.4
0.9621000000000001,68.2
0.9622,68.4
0.9623,68.4
0.9624,68.4
0.9625,68.4
0.9626,68.4
0.9627,68.4
0.9628000000000001,68.4
0.9629000000000001,68.4
0.9630000000000001,68.4
0.9631000000000001,68.4
0.9632000000000001,68.4
0.9633,68.6
0.9634,68.4
0.9635,68.4
0.9636,68.4
0.9637,68.4
0.9638000000000001,68.4
0.9639000000000001,68.4
0.9640000000000001,68.4
0.9641000000000001,68.4
0.9642000000000001,68.6
0.9643,68.6
0.9644,68.4
0.9645,68.6
0.9646,68.4
0.9647,68.4
0.9648,68.4
0.9649000000000001,68.4
0.9650000000000001,68.4
0.9651000000000001,68.4
0.9652000000000001,68.6
0.9653,68.6
0.9654,68.4
0.9655,68.8
0.9656,68.6
0.9657,68.4
0.9658,68.6
0.9659000000000001,68.6
0.9660000000000001,68.6
0.9661000000000001,68.8
0.9662000000000001,68.6
0.9663,68.4
0.9664,68.6
0.9665,68.6
0.9666,68.6
0.9667,68.6
0.9668,68.6
0.9669000000000001,68.6
0.9670000000000001,68.6
0.9671000000000001,68.6
0.9672000000000001,68.8
0.9673,68.8
0.9674,68.6
0.9675,68.8
0.9676,68.6
0.9677,68.8
0.9678,68.8
0.9679000000000001,68.6
0.9680000000000001,68.8
0.9681000000000001,68.8
0.9682000000000001,68.6
0.9683,68.6
0.9684,68.8
0.9685,68.8
0.9686,68.8
0.9687,68.8
0.9688,68.8
0.9689000000000001,68.8
0.9690000000000001,68.8
0.9691000000000001,69.0
0.9692000000000001,68.8
0.9693,68.8
0.9694,69.0
0.9695,68.8
0.9696,68.8
0.9697,68.8
0.9698,68.8
0.9699000000000001,69.0
0.9700000000000001,68.8
0.9701000000000001,68.8
0.9702000000000001,69.0
0.9703,69.0
0.9704,69.0
0.9705,69.0
0.9706,68.8
0.9707,69.0
0.9708,68.8
0.9709000000000001,69.0
0.9710000000000001,68.8
0.9711000000000001,69.0
0.9712000000000001,69.0
0.9713,69.0
0.9714,68.8
0.9715,69.0
0.9716,69.0
0.9717,69.0
0.9718,69.0
0.9719000000000001,68.8
0.9720000000000001,69.0
0.9721000000000001,69.0
0.9722000000000001,69.2
0.9723,69.0
0.9724,69.0
0.9725,69.0
0.9726,69.0
0.9727,69.2
0.9728,69.0
0.9729000000000001,69.0
0.9730000000000001,69.0
0.9731000000000001,69.0
0.9732000000000001,69.2
0.9733,69.0
0.9734,69.2
0.9735,69.2
0.9736,69.0
0.9737,69.0
0.9738,69.2
0.9739000000000001,69.2
0.9740000000000001,69.0
0.9741000000000001,69.2
0.9742000000000001,69.0
0.9743,69.0
0.9744,69.0
0.9745,69.2
0.9746,69.2
0.9747,69.2
0.9748,69.0
0.9749000000000001,69.2
0.9750000000000001,69.0
0.9751000000000001,69.2
0.9752000000000001,69.2
0.9753000000000001,69.2
0.9754,69.4
0.9755,69.2
0.9756,69.2
0.9757,69.2
0.9758,69.2
0.9759000000000001,69.2
0.9760000000000001,69.2
0.9761000000000001,69.2
0.9762000000000001,69.2
0.9763000000000001,69.2
0.9764,69.2
0.9765,69.2
0.9766,69.2
0.9767,69.2
0.9768,69.6
0.9769000000000001,69.2
0.9770000000000001,69.2
0.9771000000000001,69.2
0.9772000000000001,69.2
0.9773000000000001,69.4
0.9774,69.2
0.9775,69.2
0.9776,69.6
0.9777,69.4
0.9778,69.2
0.9779,69.6
0.9780000000000001,69.2
0.9781000000000001,69.4
0.9782000000000001,69.4
0.9783000000000001,69.4
0.9784,69.4
0.9785,69.6
0.9786,69.4
0.9787,69.4
0.9788,69.4
0.9789,69.4
0.9790000000000001,69.6
0.9791000000000001,69.6
0.9792000000000001,69.4
0.9793000000000001,69.6
0.9794,69.6
0.9795,69.4
0.9796,69.6
0.9797,69.6
0.9798,69.4
0.9799,69.6
0.9800000000000001,69.6
0.9801000000000001,69.4
0.9802000000000001,69.8
0.9803000000000001,69.8
0.9804,69.4
0.9805,69.4
0.9806,69.4
0.9807,69.6
0.9808,69.6
0.9809,69.6
0.9810000000000001,69.4
0.9811000000000001,69.4
0.9812000000000001,69.8
0.9813000000000001,69.4
0.9814,69.8
0.9815,69.4
0.9816,69.6
0.9817,69.6
0.9818,69.6
0.9819,69.8
0.9820000000000001,69.6
0.9821000000000001,69.6
0.9822000000000001,69.6
0.9823000000000001,69.6
0.9824,69.8
0.9825,69.8
0.9826,69.8
0.9827,69.8
0.9828,70.0
0.9829,69.4
0.9830000000000001,69.8
0.9831000000000001,69.8
0.9832000000000001,69.6
0.9833000000000001,69.8
0.9834,69.6
0.9835,69.8
0.9836,69.8
0.9837,69.8
0.9838,69.8
0.9839,70.0
0.9840000000000001,69.8
0.9841000000000001,69.8
0.9842000000000001,69.6
0.9843000000000001,70.0
0.9844,69.8
0.9845,69.8
0.9846,69.6
0.9847,69.8
0.9848,69.8
0.9849,69.8
0.9850000000000001,70.0
0.9851000000000001,70.0
0.9852000000000001,70.0
0.9853000000000001,70.0
0.9854,70.0
0.9855,70.0
0.9856,69.6
0.9857,69.8
0.9858,70.0
0.9859,70.0
0.9860000000000001,69.8
0.9861000000000001,69.8
0.9862000000000001,70.0
0.9863000000000001,69.8
0.9864,70.0
0.9865,70.0
0.9866,70.0
0.9867,70.0
0.9868,70.2
0.9869,70.0
0.9870000000000001,69.8
0.9871000000000001,69.8
0.9872000000000001,70.0
0.9873000000000001,69.8
0.9874,70.0
0.9875,70.0
0.9876,70.0
0.9877,69.8
0.9878,70.0
0.9879,70.0
0.9880000000000001,69.8
0.9881000000000001,69.8
0.9882000000000001,70.0
0.9883000000000001,70.0
0.9884000000000001,70.0
0.9885,70.2
0.9886,70.0
0.9887,70.0
0.9888,70.0
0.9889,70.2
0.9890000000000001,70.4
0.9891000000000001,70.0
0.9892000000000001,70.2
0.9893000000000001,70.2
0.9894000000000001,70.0
0.9895,70.2
0.9896,70.0
0.9897,70.2
0.9898,70.0
0.9899,70.2
0.9900000000000001,70.4
0.9901000000000001,70.4
0.9902000000000001,70.2
0.9903000000000001,70.4
0.9904000000000001,70.2
0.9905,70.0
0.9906,70.2
0.9907,70.2
0.9908,70.4
0.9909,70.2
0.991,70.2
0.9911000000000001,70.4
0.9912000000000001,70.2
0.9913000000000001,70.4
0.9914000000000001,70.2
0.9915,70.4
0.9916,70.2
0.9917,70.0
0.9918,70.4
0.9919,70.4
0.992,70.2
0.9921000000000001,70.2
0.9922000000000001,70.2
0.9923000000000001,70.2
0.9924000000000001,70.4
0.9925,70.2
0.9926,70.4
0.9927,70.4
0.9928,70.2
0.9929,70.4
0.993,70.4
0.9931000000000001,70.4
0.9932000000000001,70.4
0.9933000000000001,70.2
0.9934000000000001,70.4
0.9935,70.4
0.9936,70.4
0.9937,70.4
0.9938,70.4
0.9939,70.4
0.994,70.4
0.9941000000000001,70.4
0.9942000000000001,70.4
0.9943000000000001,70.4
0.9944000000000001,70.6
0.9945,70.4
0.9946,70.4
0.9947,70.4
0.9948,70.4
0.9949,70.6
0.995,70.6
0.9951000000000001,70.6
0.9952000000000001,70.6
0.9953000000000001,70.6
0.9954000000000001,70.6
0.9955,70.4
0.9956,70.6
0.9957,70.6
0.9958,70.4
0.9959,70.4
0.996,70.4
0.9961000000000001,70.6
0.9962000000000001,70.4
0.9963000000000001,70.6
0.9964000000000001,70.6
0.9965,70.6
0.9966,70.6
0.9967,70.8
0.9968,70.6
0.9969,70.4
0.997,70.6
0.9971000000000001,70.6
0.9972000000000001,70.4
0.9973000000000001,70.6
0.9974000000000001,70.6
0.9975,70.6
0.9976,70.6
0.9977,70.4
0.9978,70.6
0.9979,70.4
0.998,70.6
0.9981000000000001,70.4
0.9982000000000001,70.4
0.9983000000000001,70.6
0.9984000000000001,70.4
0.9985,70.6
0.9986,70.6
0.9987,70.8
0.9988,70.8
0.9989,70.6
0.999,70.6
0.9991000000000001,70.6
0.9992000000000001,70.8
0.9993000000000001,70.6
0.9994000000000001,71.0
0.9995,70.8
0.9996,70.6
0.9997,70.8
0.9998,70.8
0.9999,70.8
